scansci Spectrometer Data File
--- Measurement Setting ---
Type: Sample Spectrum
Date: Fri Nov 22 18:02:05 2024
User: (Reserved by scansci)
Serial: (Reserved by scansci)
Channel: No. 11
Integration Time: 300
Average: 30
Boxcar: 50
Electrical Dark: No-corrected
Time Normalize: (Reserved by scansci)
Dual-beam: (Reserved by scansci)
Reference Ch: (Reserved by scansci)
--- Measurement Data ---
Pixel   Wavelength   Intensity
    0        162.5      782.325
    1      162.985      782.173
    2      163.469      781.971
    3      163.954      781.791
    4      164.439      781.638
    5      164.923      781.442
    6      165.408      781.235
    7      165.892      781.014
    8      166.377      780.814
    9      166.861      780.602
   10      167.345      780.381
   11       167.83      780.239
   12      168.314       780.19
   13      168.798      780.198
   14      169.282      780.288
   15      169.766      780.498
   16       170.25      780.859
   17      170.734      781.199
   18      171.218      781.402
   19      171.702      781.516
   20      172.185      781.526
   21      172.669       781.62
   22      173.153      781.765
   23      173.636      781.764
   24       174.12      781.695
   25      174.603      781.749
   26      175.087      781.959
   27       175.57      782.135
   28      176.053      782.198
   29      176.537      782.252
   30       177.02      782.372
   31      177.503      782.441
   32      177.986      782.432
   33      178.469      782.395
   34      178.952      782.378
   35      179.435      782.326
   36      179.918      782.223
   37      180.401      782.089
   38      180.884      781.928
   39      181.366      781.777
   40      181.849      781.672
   41      182.332      781.591
   42      182.814      781.495
   43      183.297       781.39
   44      183.779      781.294
   45      184.262      781.205
   46      184.744      781.126
   47      185.226      781.038
   48      185.708      780.913
   49      186.191      780.782
   50      186.673      780.695
   51      187.155      780.773
   52      187.637      780.846
   53      188.119      780.883
   54        188.6      780.905
   55      189.082       780.75
   56      189.564      780.463
   57      190.046      780.289
   58      190.527      780.204
   59      191.009      780.172
   60      191.491      780.019
   61      191.972      779.878
   62      192.454      779.916
   63      192.935      779.958
   64      193.416      780.026
   65      193.897      780.067
   66      194.379      780.059
   67       194.86      780.028
   68      195.341      779.999
   69      195.822      779.987
   70      196.303      780.009
   71      196.784      780.135
   72      197.265      780.301
   73      197.746      780.399
   74      198.226      780.448
   75      198.707      780.443
   76      199.188       780.14
   77      199.668      779.635
   78      200.149      779.459
   79      200.629      779.579
   80       201.11      779.764
   81       201.59      780.009
   82       202.07      780.289
   83       202.55      780.526
   84      203.031      780.776
   85      203.511      780.835
   86      203.991      780.747
   87      204.471      780.511
   88      204.951       780.19
   89      205.431      780.041
   90       205.91      780.081
   91       206.39      780.184
   92       206.87      780.213
   93      207.349      780.295
   94      207.829      780.394
   95      208.309      780.475
   96      208.788      780.611
   97      209.267      780.716
   98      209.747      780.762
   99      210.226       780.76
  100      210.705      780.709
  101      211.185      780.703
  102      211.664      780.752
  103      212.143      780.865
  104      212.622      781.016
  105      213.101      781.111
  106      213.579      781.184
  107      214.058       781.26
  108      214.537      781.344
  109      215.016      781.463
  110      215.494      781.613
  111      215.973      781.819
  112      216.452      782.039
  113       216.93      782.123
  114      217.408      782.139
  115      217.887      782.124
  116      218.365      782.072
  117      218.843      781.962
  118      219.321      781.823
  119      219.799      781.805
  120      220.278      781.896
  121      220.755      781.981
  122      221.233      781.966
  123      221.711      781.857
  124      222.189        781.8
  125      222.667      781.832
  126      223.144       781.81
  127      223.622      781.621
  128        224.1      781.424
  129      224.577      781.297
  130      225.055      781.187
  131      225.532      781.038
  132      226.009      780.911
  133      226.486      780.814
  134      226.964       780.73
  135      227.441      780.663
  136      227.918      780.658
  137      228.395      780.701
  138      228.872      780.779
  139      229.349      780.891
  140      229.826      780.995
  141      230.302      781.031
  142      230.779      781.066
  143      231.256      781.124
  144      231.732       781.16
  145      232.209      781.223
  146      232.685      781.289
  147      233.162      781.294
  148      233.638      781.305
  149      234.114      781.364
  150       234.59      781.421
  151      235.066      781.449
  152      235.543      781.457
  153      236.019      781.478
  154      236.495      781.516
  155       236.97      781.644
  156      237.446       781.83
  157      237.922      782.006
  158      238.398      782.174
  159      238.873      782.272
  160      239.349      782.406
  161      239.824      782.551
  162        240.3      782.513
  163      240.775      782.385
  164      241.251      782.344
  165      241.726      782.359
  166      242.201      782.446
  167      242.676      782.579
  168      243.151      782.704
  169      243.626      782.787
  170      244.101        782.8
  171      244.576      782.776
  172      245.051      782.606
  173      245.526      782.396
  174          246      782.297
  175      246.475      782.212
  176       246.95      782.172
  177      247.424      782.176
  178      247.899      782.199
  179      248.373       782.09
  180      248.847      781.765
  181      249.321      781.438
  182      249.796      781.129
  183       250.27      780.911
  184      250.744      780.853
  185      251.218      780.757
  186      251.692      780.705
  187      252.166      780.723
  188      252.639      780.707
  189      253.113      780.632
  190      253.587      780.593
  191       254.06      780.504
  192      254.534      780.357
  193      255.007      780.277
  194      255.481      780.152
  195      255.954      780.015
  196      256.427      779.931
  197      256.901      779.816
  198      257.374      779.739
  199      257.847      779.761
  200       258.32      779.812
  201      258.793      779.854
  202      259.266       779.88
  203      259.739      779.876
  204      260.211      779.823
  205      260.684      779.752
  206      261.157      779.769
  207      261.629      779.842
  208      262.102      779.866
  209      262.574      779.851
  210      263.046       779.83
  211      263.519      779.827
  212      263.991      779.738
  213      264.463      779.569
  214      264.935      779.489
  215      265.407      779.417
  216      265.879      779.333
  217      266.351      779.205
  218      266.823      779.034
  219      267.295       778.91
  220      267.766      778.854
  221      268.238      778.833
  222       268.71      778.808
  223      269.181      778.739
  224      269.653       778.71
  225      270.124      778.729
  226      270.595      778.686
  227      271.066      778.583
  228      271.538      778.513
  229      272.009      778.504
  230       272.48      778.568
  231      272.951      778.634
  232      273.422      778.646
  233      273.892       778.67
  234      274.363       778.75
  235      274.834      778.839
  236      275.305      778.968
  237      275.775      779.102
  238      276.246      779.162
  239      276.716      779.221
  240      277.186       779.24
  241      277.657      779.223
  242      278.127      779.256
  243      278.597      779.424
  244      279.067      779.649
  245      279.537      779.775
  246      280.007      779.817
  247      280.477       779.84
  248      280.947      779.901
  249      281.417          780
  250      281.886      780.088
  251      282.356      780.156
  252      282.825      780.241
  253      283.295      780.305
  254      283.764      780.298
  255      284.234      780.265
  256      284.703      780.131
  257      285.172      779.935
  258      285.641      779.767
  259       286.11      779.607
  260      286.579      779.504
  261      287.048      779.354
  262      287.517      779.181
  263      287.986      779.162
  264      288.454      779.266
  265      288.923      779.336
  266      289.392      779.316
  267       289.86        779.2
  268      290.329      779.143
  269      290.797      779.202
  270      291.265      779.242
  271      291.734      779.279
  272      292.202      779.353
  273       292.67      779.456
  274      293.138      779.511
  275      293.606      779.542
  276      294.074       779.57
  277      294.541      779.607
  278      295.009      779.686
  279      295.477      779.782
  280      295.944      779.893
  281      296.412      779.982
  282      296.879      780.035
  283      297.347      780.264
  284      297.814      780.513
  285      298.281      780.555
  286      298.749      780.582
  287      299.216      780.844
  288      299.683      781.226
  289       300.15       781.47
  290      300.616      781.656
  291      301.083      781.757
  292       301.55      781.853
  293      302.017      781.931
  294      302.483      781.983
  295       302.95      782.042
  296      303.416      782.075
  297      303.883      782.201
  298      304.349      782.423
  299      304.815      782.536
  300      305.281      782.557
  301      305.748      782.575
  302      306.214      782.615
  303       306.68      782.609
  304      307.146      782.617
  305      307.611      782.679
  306      308.077        782.7
  307      308.543      782.626
  308      309.008      782.511
  309      309.474      782.457
  310      309.939      782.439
  311      310.405      782.424
  312       310.87      782.504
  313      311.335      782.651
  314        311.8       782.88
  315      312.266      783.141
  316      312.731      783.318
  317      313.196      783.418
  318       313.66      783.591
  319      314.125      783.824
  320       314.59       783.97
  321      315.055      783.965
  322      315.519      783.805
  323      315.984      783.697
  324      316.448      783.735
  325      316.913      783.906
  326      317.377      784.139
  327      317.841      784.412
  328      318.305      784.649
  329      318.769      784.827
  330      319.233       784.94
  331      319.697       784.99
  332      320.161      785.286
  333      320.625      785.806
  334      321.089      786.143
  335      321.552      786.339
  336      322.016       786.47
  337      322.479      786.452
  338      322.943      786.392
  339      323.406      786.423
  340      323.869      786.415
  341      324.333      786.422
  342      324.796      786.464
  343      325.259      786.477
  344      325.722       786.35
  345      326.185      786.152
  346      326.647      786.082
  347       327.11      786.092
  348      327.573      786.152
  349      328.035      786.282
  350      328.498       786.42
  351       328.96      786.497
  352      329.423      786.525
  353      329.885      786.483
  354      330.347      786.421
  355       330.81      786.411
  356      331.272      786.451
  357      331.734      786.711
  358      332.196      787.129
  359      332.657      787.443
  360      333.119      787.684
  361      333.581      787.884
  362      334.043      788.065
  363      334.504      788.211
  364      334.966      788.248
  365      335.427      788.193
  366      335.888       788.15
  367       336.35      788.133
  368      336.811      788.187
  369      337.272      788.191
  370      337.733      788.126
  371      338.194      788.132
  372      338.655      788.162
  373      339.115      788.155
  374      339.576      788.131
  375      340.037      788.142
  376      340.497      788.186
  377      340.958      788.266
  378      341.418      788.321
  379      341.879      788.354
  380      342.339      788.398
  381      342.799      788.464
  382      343.259      788.606
  383      343.719      788.734
  384      344.179      788.673
  385      344.639      788.536
  386      345.099      788.537
  387      345.559      788.646
  388      346.018      788.511
  389      346.478      788.328
  390      346.937      788.356
  391      347.397      788.372
  392      347.856       788.42
  393      348.315      788.426
  394      348.774      788.443
  395      349.234      788.454
  396      349.693      788.476
  397      350.152      788.653
  398       350.61      788.788
  399      351.069      788.767
  400      351.528      788.796
  401      351.987      788.833
  402      352.445      788.822
  403      352.904      788.806
  404      353.362      788.824
  405       353.82      788.824
  406      354.279       788.77
  407      354.737      788.723
  408      355.195      788.758
  409      355.653      788.819
  410      356.111      788.901
  411      356.569      789.015
  412      357.027      789.103
  413      357.484      789.145
  414      357.942      789.167
  415      358.399      789.062
  416      358.857      788.878
  417      359.314      788.779
  418      359.772      788.763
  419      360.229      788.664
  420      360.686      788.483
  421      361.143      788.477
  422        361.6      788.615
  423      362.057      788.806
  424      362.514      788.989
  425      362.971      789.054
  426      363.427      788.947
  427      363.884      788.767
  428       364.34       788.58
  429      364.797       788.46
  430      365.253      788.401
  431      365.709       788.36
  432      366.166      788.347
  433      366.622      788.109
  434      367.078      787.734
  435      367.534       787.57
  436       367.99      787.457
  437      368.445      787.381
  438      368.901      787.385
  439      369.357      787.403
  440      369.812      787.402
  441      370.268      787.442
  442      370.723      787.543
  443      371.179      787.704
  444      371.634      787.867
  445      372.089      787.984
  446      372.544      788.084
  447      372.999      788.173
  448      373.454      788.228
  449      373.909      788.233
  450      374.364      788.176
  451      374.818       788.05
  452      375.273      787.999
  453      375.727      788.051
  454      376.182      788.119
  455      376.636      788.189
  456       377.09      788.301
  457      377.545      788.424
  458      377.999      788.368
  459      378.453      788.191
  460      378.907      788.113
  461      379.361      788.118
  462      379.814      788.136
  463      380.268      788.164
  464      380.722      788.263
  465      381.175       788.39
  466      381.629      788.497
  467      382.082      788.618
  468      382.535      788.747
  469      382.989      788.819
  470      383.442      788.897
  471      383.895      789.003
  472      384.348      789.119
  473      384.801      789.247
  474      385.253      789.364
  475      385.706      789.446
  476      386.159      789.537
  477      386.611      789.644
  478      387.064      789.843
  479      387.516      790.164
  480      387.968      790.426
  481      388.421       790.61
  482      388.873      790.702
  483      389.325      790.786
  484      389.777      790.959
  485      390.229      791.173
  486      390.681      791.672
  487      391.132       792.26
  488      391.584      792.591
  489      392.035      792.832
  490      392.487      792.926
  491      392.938      792.969
  492       393.39      793.091
  493      393.841      793.233
  494      394.292      793.501
  495      394.743      793.847
  496      395.194      794.124
  497      395.645      794.311
  498      396.096      794.351
  499      396.546      794.393
  500      396.997       794.53
  501      397.448      794.713
  502      397.898      794.941
  503      398.349      795.177
  504      398.799      795.437
  505      399.249      795.776
  506      399.699      796.163
  507      400.149      796.491
  508      400.599      796.798
  509      401.049      797.041
  510      401.499      797.321
  511      401.949       797.59
  512      402.398      797.782
  513      402.848      797.956
  514      403.297       798.07
  515      403.747      798.172
  516      404.196       798.31
  517      404.645      798.448
  518      405.094      798.584
  519      405.543      798.725
  520      405.992      798.935
  521      406.441      799.182
  522       406.89        799.3
  523      407.339      799.461
  524      407.787       799.72
  525      408.236      799.886
  526      408.684      800.198
  527      409.132      800.665
  528      409.581      801.006
  529      410.029      801.248
  530      410.477      801.419
  531      410.925      801.554
  532      411.373      801.702
  533      411.821      801.938
  534      412.269      802.225
  535      412.716      802.404
  536      413.164      802.524
  537      413.611      802.711
  538      414.059      802.919
  539      414.506      803.116
  540      414.953      803.325
  541        415.4      803.513
  542      415.847      803.666
  543      416.294      803.789
  544      416.741       803.88
  545      417.188      803.959
  546      417.635      804.052
  547      418.081      804.161
  548      418.528      804.292
  549      418.974      804.457
  550      419.421      804.636
  551      419.867      804.835
  552      420.313      805.117
  553      420.759      805.428
  554      421.205      805.739
  555      421.651      806.073
  556      422.097       806.38
  557      422.543      806.621
  558      422.989      806.844
  559      423.434      807.049
  560       423.88      807.198
  561      424.325      807.347
  562       424.77      807.507
  563      425.216      807.719
  564      425.661      807.975
  565      426.106      808.225
  566      426.551      808.524
  567      426.996      808.894
  568       427.44      809.292
  569      427.885      809.671
  570       428.33      810.119
  571      428.774      810.595
  572      429.219      811.026
  573      429.663      811.457
  574      430.107      811.891
  575      430.551      812.333
  576      430.996      812.803
  577       431.44      813.255
  578      431.883      813.709
  579      432.327      814.102
  580      432.771      814.429
  581      433.215      814.795
  582      433.658      815.186
  583      434.102      815.671
  584      434.545      816.141
  585      434.988       816.61
  586      435.431      817.103
  587      435.875      817.298
  588      436.318      817.424
  589      436.761      817.812
  590      437.203      818.408
  591      437.646      819.168
