scansci Spectrometer Data File
--- Measurement Setting ---
Type: Sample Spectrum
Date: Fri Nov 22 18:00:57 2024
User: (Reserved by scansci)
Serial: (Reserved by scansci)
Channel: No. 11
Integration Time: 500
Average: 30
Boxcar: 50
Electrical Dark: No-corrected
Time Normalize: (Reserved by scansci)
Dual-beam: (Reserved by scansci)
Reference Ch: (Reserved by scansci)
--- Measurement Data ---
Pixel   Wavelength   Intensity
    0        162.5      806.912
    1      162.985      806.522
    2      163.469      806.072
    3      163.954       805.67
    4      164.439      805.298
    5      164.923      804.876
    6      165.408      804.443
    7      165.892      804.014
    8      166.377      803.623
    9      166.861      803.224
   10      167.345      802.816
   11       167.83      802.519
   12      168.314       802.34
   13      168.798      802.237
   14      169.282      802.278
   15      169.766      802.525
   16       170.25      803.037
   17      170.734      803.506
   18      171.218      803.772
   19      171.702      803.923
   20      172.185      803.902
   21      172.669      803.988
   22      173.153      804.174
   23      173.636      804.175
   24       174.12       804.07
   25      174.603      804.154
   26      175.087      804.474
   27       175.57      804.723
   28      176.053      804.805
   29      176.537      804.868
   30       177.02      805.002
   31      177.503      805.073
   32      177.986      805.028
   33      178.469      804.921
   34      178.952      804.835
   35      179.435       804.68
   36      179.918       804.44
   37      180.401      804.148
   38      180.884      803.834
   39      181.366      803.551
   40      181.849      803.336
   41      182.332      803.151
   42      182.814      802.922
   43      183.297      802.694
   44      183.779       802.52
   45      184.262      802.367
   46      184.744      802.213
   47      185.226      802.028
   48      185.708      801.793
   49      186.191      801.578
   50      186.673      801.439
   51      187.155      801.535
   52      187.637      801.646
   53      188.119      801.696
   54        188.6      801.694
   55      189.082       801.38
   56      189.564      800.852
   57      190.046      800.508
   58      190.527      800.314
   59      191.009      800.227
   60      191.491      799.984
   61      191.972      799.751
   62      192.454      799.763
   63      192.935      799.771
   64      193.416      799.804
   65      193.897      799.783
   66      194.379      799.701
   67       194.86      799.611
   68      195.341      799.518
   69      195.822      799.442
   70      196.303      799.444
   71      196.784       799.64
   72      197.265      799.898
   73      197.746      800.065
   74      198.226      800.163
   75      198.707      800.179
   76      199.188      799.641
   77      199.668      798.737
   78      200.149      798.378
   79      200.629      798.519
   80       201.11      798.779
   81       201.59      799.133
   82       202.07      799.521
   83       202.55      799.842
   84      203.031      800.163
   85      203.511      800.157
   86      203.991      799.928
   87      204.471      799.265
   88      204.951        798.3
   89      205.431      797.759
   90       205.91      797.598
   91       206.39      797.629
   92       206.87      797.599
   93      207.349       797.69
   94      207.829      797.847
   95      208.309       797.94
   96      208.788      798.089
   97      209.267       798.19
   98      209.747      798.217
   99      210.226      798.148
  100      210.705      798.003
  101      211.185       797.95
  102      211.664       798.01
  103      212.143      798.178
  104      212.622      798.352
  105      213.101      798.446
  106      213.579       798.53
  107      214.058      798.632
  108      214.537      798.739
  109      215.016      798.905
  110      215.494      799.113
  111      215.973      799.391
  112      216.452      799.709
  113       216.93      799.822
  114      217.408      799.801
  115      217.887      799.729
  116      218.365      799.602
  117      218.843      799.413
  118      219.321      799.208
  119      219.799      799.164
  120      220.278       799.26
  121      220.755      799.345
  122      221.233      799.287
  123      221.711      799.072
  124      222.189      798.925
  125      222.667      798.935
  126      223.144      798.875
  127      223.622      798.558
  128        224.1      798.225
  129      224.577      798.003
  130      225.055      797.808
  131      225.532      797.572
  132      226.009       797.37
  133      226.486      797.203
  134      226.964      797.075
  135      227.441      796.965
  136      227.918      796.989
  137      228.395       797.11
  138      228.872      797.302
  139      229.349      797.543
  140      229.826      797.735
  141      230.302      797.805
  142      230.779      797.858
  143      231.256      797.969
  144      231.732      798.041
  145      232.209      798.126
  146      232.685      798.209
  147      233.162      798.204
  148      233.638      798.214
  149      234.114      798.265
  150       234.59      798.272
  151      235.066      798.225
  152      235.543      798.169
  153      236.019      798.177
  154      236.495      798.209
  155       236.97      798.404
  156      237.446      798.738
  157      237.922      799.029
  158      238.398      799.293
  159      238.873      799.477
  160      239.349      799.737
  161      239.824      799.968
  162        240.3      799.889
  163      240.775      799.707
  164      241.251      799.682
  165      241.726      799.717
  166      242.201      799.874
  167      242.676      800.118
  168      243.151      800.349
  169      243.626       800.52
  170      244.101      800.589
  171      244.576      800.595
  172      245.051      800.352
  173      245.526      799.999
  174          246      799.796
  175      246.475      799.647
  176       246.95      799.572
  177      247.424      799.557
  178      247.899      799.584
  179      248.373      799.436
  180      248.847      798.916
  181      249.321      798.382
  182      249.796      797.877
  183       250.27      797.527
  184      250.744      797.471
  185      251.218      797.388
  186      251.692      797.372
  187      252.166      797.424
  188      252.639      797.382
  189      253.113      797.255
  190      253.587      797.196
  191       254.06      797.063
  192      254.534      796.833
  193      255.007      796.716
  194      255.481      796.543
  195      255.954      796.338
  196      256.427      796.237
  197      256.901      796.067
  198      257.374      795.927
  199      257.847      795.956
  200       258.32      796.044
  201      258.793      796.127
  202      259.266      796.208
  203      259.739      796.234
  204      260.211      796.155
  205      260.684      796.083
  206      261.157      796.133
  207      261.629      796.208
  208      262.102      796.209
  209      262.574      796.171
  210      263.046       796.12
  211      263.519      796.108
  212      263.991      796.004
  213      264.463      795.792
  214      264.935       795.73
  215      265.407      795.726
  216      265.879      795.684
  217      266.351      795.531
  218      266.823      795.231
  219      267.295      794.969
  220      267.766      794.831
  221      268.238      794.775
  222       268.71      794.724
  223      269.181      794.637
  224      269.653      794.618
  225      270.124      794.665
  226      270.595      794.632
  227      271.066      794.503
  228      271.538      794.426
  229      272.009      794.427
  230       272.48      794.519
  231      272.951      794.624
  232      273.422      794.648
  233      273.892      794.648
  234      274.363      794.719
  235      274.834      794.799
  236      275.305      794.955
  237      275.775      795.121
  238      276.246      795.187
  239      276.716      795.221
  240      277.186      795.168
  241      277.657      795.084
  242      278.127      795.093
  243      278.597      795.361
  244      279.067      795.718
  245      279.537      795.908
  246      280.007      795.952
  247      280.477      795.936
  248      280.947      796.017
  249      281.417      796.196
  250      281.886      796.372
  251      282.356      796.529
  252      282.825      796.733
  253      283.295      796.896
  254      283.764      796.903
  255      284.234      796.863
  256      284.703      796.665
  257      285.172      796.344
  258      285.641       796.07
  259       286.11      795.818
  260      286.579      795.638
  261      287.048      795.342
  262      287.517      795.008
  263      287.986      794.933
  264      288.454      795.032
  265      288.923      795.067
  266      289.392      795.002
  267       289.86      794.811
  268      290.329      794.683
  269      290.797        794.7
  270      291.265       794.68
  271      291.734      794.681
  272      292.202      794.763
  273       292.67      794.889
  274      293.138      794.918
  275      293.606      794.906
  276      294.074      794.873
  277      294.541      794.854
  278      295.009      794.927
  279      295.477       795.05
  280      295.944      795.163
  281      296.412       795.26
  282      296.879      795.355
  283      297.347      795.734
  284      297.814      796.135
  285      298.281      796.181
  286      298.749      796.192
  287      299.216      796.611
  288      299.683      797.241
  289       300.15      797.672
  290      300.616      798.006
  291      301.083      798.197
  292       301.55      798.344
  293      302.017      798.448
  294      302.483      798.467
  295       302.95       798.46
  296      303.416      798.416
  297      303.883      798.529
  298      304.349      798.832
  299      304.815       799.03
  300      305.281      799.079
  301      305.748      799.102
  302      306.214      799.135
  303       306.68      799.092
  304      307.146      799.082
  305      307.611      799.185
  306      308.077      799.226
  307      308.543      799.115
  308      309.008      798.956
  309      309.474       798.87
  310      309.939      798.833
  311      310.405      798.806
  312       310.87      798.915
  313      311.335      799.093
  314        311.8       799.37
  315      312.266      799.692
  316      312.731      799.854
  317      313.196      799.907
  318       313.66      800.113
  319      314.125      800.465
  320       314.59      800.713
  321      315.055      800.739
  322      315.519      800.485
  323      315.984      800.293
  324      316.448      800.285
  325      316.913      800.488
  326      317.377      800.812
  327      317.841      801.166
  328      318.305      801.458
  329      318.769      801.638
  330      319.233      801.746
  331      319.697      801.779
  332      320.161      802.237
  333      320.625      803.031
  334      321.089       803.52
  335      321.552      803.789
  336      322.016      803.937
  337      322.479      803.859
  338      322.943      803.686
  339      323.406      803.631
  340      323.869      803.548
  341      324.333      803.515
  342      324.796      803.547
  343      325.259      803.532
  344      325.722      803.282
  345      326.185      802.941
  346      326.647      802.783
  347       327.11      802.745
  348      327.573      802.782
  349      328.035      802.898
  350      328.498      803.025
  351       328.96      803.083
  352      329.423      803.074
  353      329.885      802.917
  354      330.347       802.72
  355       330.81      802.609
  356      331.272      802.553
  357      331.734      802.813
  358      332.196      803.312
  359      332.657      803.679
  360      333.119       803.94
  361      333.581      804.131
  362      334.043       804.29
  363      334.504      804.392
  364      334.966      804.339
  365      335.427      804.171
  366      335.888      804.066
  367       336.35      803.985
  368      336.811      803.981
  369      337.272      803.923
  370      337.733      803.783
  371      338.194      803.761
  372      338.655      803.743
  373      339.115      803.635
  374      339.576        803.5
  375      340.037      803.472
  376      340.497        803.5
  377      340.958      803.555
  378      341.418      803.589
  379      341.879      803.586
  380      342.339      803.557
  381      342.799      803.565
  382      343.259      803.685
  383      343.719      803.762
  384      344.179      803.545
  385      344.639      803.235
  386      345.099      803.177
  387      345.559      803.275
  388      346.018      802.941
  389      346.478      802.526
  390      346.937      802.444
  391      347.397      802.346
  392      347.856      802.317
  393      348.315      802.235
  394      348.774      802.153
  395      349.234      802.127
  396      349.693      802.184
  397      350.152      802.485
  398       350.61      802.703
  399      351.069      802.683
  400      351.528      802.722
  401      351.987      802.738
  402      352.445      802.679
  403      352.904      802.632
  404      353.362      802.605
  405       353.82      802.532
  406      354.279       802.38
  407      354.737      802.238
  408      355.195      802.201
  409      355.653      802.211
  410      356.111      802.272
  411      356.569      802.392
  412      357.027      802.473
  413      357.484      802.473
  414      357.942      802.452
  415      358.399      802.264
  416      358.857      801.959
  417      359.314      801.774
  418      359.772      801.706
  419      360.229      801.526
  420      360.686      801.202
  421      361.143      801.103
  422        361.6      801.217
  423      362.057      801.443
  424      362.514      801.663
  425      362.971      801.698
  426      363.427      801.455
  427      363.884      801.084
  428       364.34      800.705
  429      364.797      800.412
  430      365.253      800.224
  431      365.709      800.058
  432      366.166      799.932
  433      366.622      799.431
  434      367.078      798.726
  435      367.534      798.371
  436       367.99      798.112
  437      368.445      797.928
  438      368.901       797.87
  439      369.357      797.836
  440      369.812      797.783
  441      370.268      797.789
  442      370.723      797.866
  443      371.179      798.037
  444      371.634      798.227
  445      372.089       798.35
  446      372.544      798.407
  447      372.999      798.452
  448      373.454      798.442
  449      373.909      798.362
  450      374.364      798.205
  451      374.818      797.934
  452      375.273      797.744
  453      375.727      797.693
  454      376.182      797.694
  455      376.636      797.725
  456       377.09      797.846
  457      377.545       798.01
  458      377.999      797.925
  459      378.453      797.673
  460      378.907      797.523
  461      379.361      797.473
  462      379.814      797.461
  463      380.268      797.456
  464      380.722      797.552
  465      381.175        797.7
  466      381.629      797.798
  467      382.082      797.879
  468      382.535      797.973
  469      382.989      797.984
  470      383.442      797.961
  471      383.895      797.976
  472      384.348      798.004
  473      384.801      798.041
  474      385.253      798.063
  475      385.706      798.069
  476      386.159      798.104
  477      386.611      798.178
  478      387.064      798.413
  479      387.516       798.82
  480      387.968      799.115
  481      388.421      799.306
  482      388.873      799.363
  483      389.325      799.448
  484      389.777      799.667
  485      390.229      799.943
  486      390.681      800.656
  487      391.132      801.484
  488      391.584      801.875
  489      392.035      802.104
  490      392.487        802.1
  491      392.938       802.02
  492       393.39       802.07
  493      393.841      802.176
  494      394.292      802.508
  495      394.743      802.975
  496      395.194      803.281
  497      395.645      803.373
  498      396.096      803.212
  499      396.546      803.053
  500      396.997      803.023
  501      397.448       803.06
  502      397.898      803.173
  503      398.349      803.285
  504      398.799      803.408
  505      399.249      803.689
  506      399.699       804.07
  507      400.149      804.334
  508      400.599       804.54
  509      401.049      804.689
  510      401.499      804.921
  511      401.949      805.143
  512      402.398      805.232
  513      402.848      805.285
  514      403.297       805.25
  515      403.747      805.191
  516      404.196      805.191
  517      404.645        805.2
  518      405.094      805.216
  519      405.543      805.225
  520      405.992      805.296
  521      406.441      805.413
  522       406.89       805.38
  523      407.339      805.418
  524      407.787      805.615
  525      408.236      805.696
  526      408.684      806.047
  527      409.132      806.634
  528      409.581      806.988
  529      410.029      807.155
  530      410.477      807.229
  531      410.925       807.25
  532      411.373      807.297
  533      411.821      807.497
  534      412.269      807.734
  535      412.716      807.772
  536      413.164      807.744
  537      413.611      807.822
  538      414.059      807.933
  539      414.506      808.016
  540      414.953      808.126
  541        415.4      808.225
  542      415.847      808.266
  543      416.294      808.254
  544      416.741      808.161
  545      417.188      808.028
  546      417.635      807.904
  547      418.081      807.813
  548      418.528      807.753
  549      418.974      807.773
  550      419.421      807.848
  551      419.867      807.918
  552      420.313      808.068
  553      420.759      808.255
  554      421.205      808.461
  555      421.651      808.702
  556      422.097      808.875
  557      422.543      808.891
  558      422.989      808.865
  559      423.434       808.81
  560       423.88      808.645
  561      424.325      808.518
  562       424.77      808.449
  563      425.216      808.446
  564      425.661      808.477
  565      426.106      808.477
  566      426.551      808.511
  567      426.996      808.659
  568       427.44      808.891
  569      427.885       809.07
  570       428.33       809.31
  571      428.774      809.584
  572      429.219      809.774
  573      429.663       809.92
  574      430.107      810.052
  575      430.551      810.198
  576      430.996      810.323
  577       431.44      810.365
  578      431.883      810.374
  579      432.327      810.268
  580      432.771      809.989
  581      433.215      809.709
  582      433.658      809.456
  583      434.102      809.293
  584      434.545       809.03
  585      434.988      808.733
  586      435.431      808.417
  587      435.875      807.563
  588      436.318      806.532
  589      436.761      805.889
  590      437.203      805.526
  591      437.646      805.331
