scansci Spectrometer Data File
--- Measurement Setting ---
Type: Sample Spectrum
Date: Fri Nov 22 17:55:53 2024
User: (Reserved by scansci)
Serial: (Reserved by scansci)
Channel: No. 11
Integration Time: 36
Average: 30
Boxcar: 50
Electrical Dark: No-corrected
Time Normalize: (Reserved by scansci)
Dual-beam: (Reserved by scansci)
Reference Ch: (Reserved by scansci)
--- Measurement Data ---
Pixel   Wavelength   Intensity
    0        162.5      823.464
    1      162.985      823.495
    2      163.469      823.508
    3      163.954      823.521
    4      164.439      823.575
    5      164.923      823.611
    6      165.408      823.627
    7      165.892      823.658
    8      166.377      823.699
    9      166.861      823.719
   10      167.345       823.71
   11       167.83      823.688
   12      168.314       823.68
   13      168.798      823.679
   14      169.282      823.674
   15      169.766      823.677
   16       170.25      823.697
   17      170.734      823.742
   18      171.218      823.794
   19      171.702      823.844
   20      172.185      823.886
   21      172.669      823.906
   22      173.153      823.919
   23      173.636      823.915
   24       174.12      823.897
   25      174.603      823.907
   26      175.087      823.934
   27       175.57      823.976
   28      176.053       824.02
   29      176.537      824.059
   30       177.02      824.115
   31      177.503      824.168
   32      177.986        824.2
   33      178.469      824.212
   34      178.952      824.216
   35      179.435      824.214
   36      179.918      824.193
   37      180.401      824.166
   38      180.884      824.134
   39      181.366      824.121
   40      181.849      824.126
   41      182.332      824.117
   42      182.814      824.118
   43      183.297       824.12
   44      183.779       824.11
   45      184.262      824.089
   46      184.744      824.074
   47      185.226      824.049
   48      185.708      824.027
   49      186.191      824.007
   50      186.673      823.981
   51      187.155       824.11
   52      187.637       824.15
   53      188.119      824.171
   54        188.6      824.196
   55      189.082      824.197
   56      189.564        824.2
   57      190.046      824.212
   58      190.527      824.235
   59      191.009      824.253
   60      191.491      824.254
   61      191.972      824.262
   62      192.454       824.28
   63      192.935      824.304
   64      193.416      824.327
   65      193.897      824.316
   66      194.379      824.311
   67       194.86      824.315
   68      195.341      824.298
   69      195.822      824.295
   70      196.303      824.307
   71      196.784      824.333
   72      197.265      824.364
   73      197.746      824.392
   74      198.226      824.434
   75      198.707      824.471
   76      199.188       824.46
   77      199.668      824.423
   78      200.149      824.443
   79      200.629      824.508
   80       201.11      824.557
   81       201.59      824.602
   82       202.07      824.648
   83       202.55      824.665
   84      203.031      824.665
   85      203.511      824.651
   86      203.991      824.643
   87      204.471      824.638
   88      204.951      824.628
   89      205.431      824.644
   90       205.91      824.673
   91       206.39      824.677
   92       206.87      824.667
   93      207.349      824.674
   94      207.829      824.693
   95      208.309      824.722
   96      208.788      824.759
   97      209.267      824.799
   98      209.747      824.825
   99      210.226      824.849
  100      210.705      824.863
  101      211.185      824.889
  102      211.664      824.923
  103      212.143      824.963
  104      212.622      824.987
  105      213.101       824.97
  106      213.579      824.956
  107      214.058      824.954
  108      214.537      824.943
  109      215.016      824.938
  110      215.494      824.957
  111      215.973      824.991
  112      216.452      825.049
  113       216.93      825.107
  114      217.408      825.147
  115      217.887      825.188
  116      218.365      825.233
  117      218.843      825.274
  118      219.321      825.283
  119      219.799      825.299
  120      220.278      825.327
  121      220.755      825.344
  122      221.233      825.359
  123      221.711      825.371
  124      222.189      825.397
  125      222.667       825.42
  126      223.144      825.406
  127      223.622      825.378
  128        224.1       825.34
  129      224.577      825.296
  130      225.055       825.27
  131      225.532      825.236
  132      226.009      825.198
  133      226.486      825.173
  134      226.964      825.165
  135      227.441      825.174
  136      227.918      825.205
  137      228.395      825.257
  138      228.872      825.313
  139      229.349      825.384
  140      229.826      825.436
  141      230.302      825.465
  142      230.779      825.501
  143      231.256      825.531
  144      231.732      825.545
  145      232.209      825.556
  146      232.685      825.588
  147      233.162      825.624
  148      233.638      825.685
  149      234.114      825.745
  150       234.59      825.789
  151      235.066      825.836
  152      235.543      825.874
  153      236.019      825.905
  154      236.495      825.916
  155       236.97      825.929
  156      237.446      825.964
  157      237.922      825.984
  158      238.398      825.983
  159      238.873      825.974
  160      239.349      825.994
  161      239.824      826.022
  162        240.3      826.017
  163      240.775      826.003
  164      241.251      825.998
  165      241.726      825.998
  166      242.201      826.046
  167      242.676      826.106
  168      243.151      826.162
  169      243.626      826.222
  170      244.101      826.278
  171      244.576      826.326
  172      245.051      826.342
  173      245.526      826.335
  174          246      826.325
  175      246.475      826.287
  176       246.95      826.249
  177      247.424      826.237
  178      247.899      826.249
  179      248.373      826.257
  180      248.847       826.25
  181      249.321      826.235
  182      249.796      826.218
  183       250.27      826.224
  184      250.744      826.262
  185      251.218      826.293
  186      251.692      826.317
  187      252.166       826.34
  188      252.639      826.345
  189      253.113      826.347
  190      253.587      826.345
  191       254.06      826.334
  192      254.534      826.331
  193      255.007      826.349
  194      255.481      826.355
  195      255.954      826.347
  196      256.427      826.341
  197      256.901      826.331
  198      257.374      826.319
  199      257.847       826.32
  200       258.32      826.327
  201      258.793      826.329
  202      259.266       826.31
  203      259.739      826.278
  204      260.211      826.245
  205      260.684      826.225
  206      261.157      826.224
  207      261.629       826.23
  208      262.102      826.243
  209      262.574      826.252
  210      263.046      826.243
  211      263.519      826.205
  212      263.991      826.172
  213      264.463      826.139
  214      264.935      826.091
  215      265.407      826.065
  216      265.879      826.053
  217      266.351      826.024
  218      266.823      825.974
  219      267.295      825.932
  220      267.766      825.886
  221      268.238      825.846
  222       268.71      825.808
  223      269.181      825.774
  224      269.653      825.754
  225      270.124      825.732
  226      270.595      825.706
  227      271.066      825.689
  228      271.538      825.676
  229      272.009      825.665
  230       272.48      825.672
  231      272.951      825.673
  232      273.422      825.673
  233      273.892      825.691
  234      274.363      825.712
  235      274.834      825.709
  236      275.305      825.684
  237      275.775      825.657
  238      276.246      825.643
  239      276.716      825.638
  240      277.186      825.599
  241      277.657      825.552
  242      278.127      825.504
  243      278.597      825.466
  244      279.067      825.435
  245      279.537      825.417
  246      280.007      825.395
  247      280.477      825.361
  248      280.947      825.333
  249      281.417      825.301
  250      281.886      825.263
  251      282.356      825.239
  252      282.825      825.224
  253      283.295      825.208
  254      283.764      825.164
  255      284.234      825.126
  256      284.703      825.103
  257      285.172      825.086
  258      285.641      825.082
  259       286.11      825.097
  260      286.579      825.118
  261      287.048      825.106
  262      287.517       825.08
  263      287.986      825.082
  264      288.454      825.101
  265      288.923      825.115
  266      289.392      825.118
  267       289.86      825.099
  268      290.329      825.078
  269      290.797      825.072
  270      291.265      825.049
  271      291.734      825.031
  272      292.202      825.024
  273       292.67      825.028
  274      293.138      825.038
  275      293.606      825.069
  276      294.074      825.095
  277      294.541      825.111
  278      295.009      825.116
  279      295.477      825.117
  280      295.944      825.118
  281      296.412      825.098
  282      296.879      825.084
  283      297.347      825.104
  284      297.814      825.114
  285      298.281      825.101
  286      298.749      825.085
  287      299.216      825.089
  288      299.683      825.125
  289       300.15      825.164
  290      300.616      825.166
  291      301.083      825.146
  292       301.55      825.128
  293      302.017       825.11
  294      302.483      825.081
  295       302.95      825.048
  296      303.416      825.027
  297      303.883       825.02
  298      304.349       825.02
  299      304.815      825.024
  300      305.281      825.022
  301      305.748      825.008
  302      306.214      824.996
  303       306.68      824.997
  304      307.146      824.993
  305      307.611      825.002
  306      308.077      825.016
  307      308.543      825.016
  308      309.008      824.994
  309      309.474      824.976
  310      309.939      824.979
  311      310.405      825.003
  312       310.87      825.056
  313      311.335      825.118
  314        311.8      825.181
  315      312.266      825.241
  316      312.731      825.274
  317      313.196      825.287
  318       313.66       825.32
  319      314.125       825.37
  320       314.59      825.418
  321      315.055      825.471
  322      315.519      825.512
  323      315.984      825.562
  324      316.448      825.618
  325      316.913      825.673
  326      317.377      825.737
  327      317.841      825.819
  328      318.305      825.899
  329      318.769      825.968
  330      319.233      826.039
  331      319.697      826.099
  332      320.161      826.175
  333      320.625      826.268
  334      321.089      826.325
  335      321.552      826.362
  336      322.016      826.421
  337      322.479      826.482
  338      322.943      826.527
  339      323.406      826.568
  340      323.869      826.588
  341      324.333      826.637
  342      324.796      826.707
  343      325.259      826.784
  344      325.722      826.871
  345      326.185      826.941
  346      326.647      826.997
  347       327.11      827.055
  348      327.573      827.118
  349      328.035      827.174
  350      328.498      827.227
  351       328.96      827.292
  352      329.423      827.343
  353      329.885      827.372
  354      330.347        827.4
  355       330.81       827.45
  356      331.272      827.507
  357      331.734      827.559
  358      332.196      827.608
  359      332.657      827.647
  360      333.119      827.673
  361      333.581      827.694
  362      334.043      827.719
  363      334.504      827.744
  364      334.966      827.776
  365      335.427      827.803
  366      335.888      827.827
  367       336.35      827.862
  368      336.811      827.895
  369      337.272      827.931
  370      337.733      827.969
  371      338.194      828.028
  372      338.655      828.077
  373      339.115      828.111
  374      339.576      828.149
  375      340.037      828.188
  376      340.497      828.219
  377      340.958      828.277
  378      341.418      828.353
  379      341.879      828.449
  380      342.339      828.533
  381      342.799      828.611
  382      343.259      828.707
  383      343.719      828.791
  384      344.179      828.835
  385      344.639      828.871
  386      345.099       828.91
  387      345.559      828.969
  388      346.018      829.015
  389      346.478      829.044
  390      346.937      829.086
  391      347.397      829.156
  392      347.856      829.263
  393      348.315      829.368
  394      348.774      829.469
  395      349.234       829.55
  396      349.693      829.628
  397      350.152      829.728
  398       350.61      829.824
  399      351.069      829.908
  400      351.528      829.995
  401      351.987      830.079
  402      352.445      830.166
  403      352.904      830.259
  404      353.362      830.341
  405       353.82       830.43
  406      354.279      830.513
  407      354.737      830.576
  408      355.195      830.641
  409      355.653      830.721
  410      356.111      830.794
  411      356.569       830.87
  412      357.027      830.955
  413      357.484       831.03
  414      357.942      831.081
  415      358.399        831.1
  416      358.857      831.134
  417      359.314      831.196
  418      359.772      831.283
  419      360.229      831.365
  420      360.686      831.432
  421      361.143      831.518
  422        361.6      831.598
  423      362.057      831.678
  424      362.514      831.762
  425      362.971      831.843
  426      363.427       831.92
  427      363.884      831.988
  428       364.34      832.053
  429      364.797      832.111
  430      365.253      832.166
  431      365.709      832.209
  432      366.166      832.252
  433      366.622      832.283
  434      367.078      832.306
  435      367.534      832.359
  436       367.99      832.426
  437      368.445      832.494
  438      368.901      832.575
  439      369.357      832.655
  440      369.812      832.734
  441      370.268      832.837
  442      370.723      832.928
  443      371.179      833.016
  444      371.634      833.105
  445      372.089      833.197
  446      372.544      833.306
  447      372.999      833.446
  448      373.454      833.611
  449      373.909       833.78
  450      374.364       833.94
  451      374.818      834.083
  452      375.273      834.233
  453      375.727      834.397
  454      376.182      834.558
  455      376.636      834.712
  456       377.09      834.863
  457      377.545      835.009
  458      377.999      835.151
  459      378.453      835.285
  460      378.907      835.417
  461      379.361      835.552
  462      379.814      835.699
  463      380.268      835.872
  464      380.722      836.067
  465      381.175       836.24
  466      381.629      836.404
  467      382.082      836.579
  468      382.535      836.744
  469      382.989      836.894
  470      383.442      837.044
  471      383.895       837.19
  472      384.348      837.344
  473      384.801        837.5
  474      385.253      837.654
  475      385.706      837.795
  476      386.159      837.939
  477      386.611      838.094
  478      387.064      838.266
  479      387.516      838.462
  480      387.968      838.657
  481      388.421      838.867
  482      388.873       839.08
  483      389.325      839.302
  484      389.777      839.544
  485      390.229      839.791
  486      390.681      840.073
  487      391.132      840.385
  488      391.584      840.676
  489      392.035      840.938
  490      392.487      841.188
  491      392.938      841.425
  492       393.39      841.677
  493      393.841      841.928
  494      394.292       842.17
  495      394.743      842.405
  496      395.194      842.645
  497      395.645      842.892
  498      396.096      843.123
  499      396.546      843.341
  500      396.997      843.556
  501      397.448       843.77
  502      397.898      843.992
  503      398.349      844.229
  504      398.799      844.485
  505      399.249      844.763
  506      399.699      845.062
  507      400.149       845.35
  508      400.599      845.633
  509      401.049      845.934
  510      401.499       846.26
  511      401.949      846.578
  512      402.398      846.887
  513      402.848      847.179
  514      403.297      847.452
  515      403.747      847.721
  516      404.196      848.022
  517      404.645      848.328
  518      405.094      848.621
  519      405.543      848.904
  520      405.992      849.185
  521      406.441      849.476
  522       406.89      849.753
  523      407.339      850.038
  524      407.787      850.327
  525      408.236      850.597
  526      408.684      850.879
  527      409.132      851.171
  528      409.581       851.46
  529      410.029      851.748
  530      410.477      852.033
  531      410.925      852.326
  532      411.373       852.65
  533      411.821      852.989
  534      412.269      853.326
  535      412.716      853.647
  536      413.164      853.948
  537      413.611       854.24
  538      414.059      854.535
  539      414.506       854.83
  540      414.953      855.136
  541        415.4       855.44
  542      415.847      855.725
  543      416.294      856.025
  544      416.741      856.325
  545      417.188      856.631
  546      417.635       856.93
  547      418.081      857.222
  548      418.528      857.517
  549      418.974      857.815
  550      419.421      858.104
  551      419.867      858.393
  552      420.313      858.706
  553      420.759      859.006
  554      421.205      859.306
  555      421.651      859.636
  556      422.097       859.98
  557      422.543      860.312
  558      422.989      860.631
  559      423.434      860.947
  560       423.88       861.27
  561      424.325      861.616
  562       424.77      861.976
  563      425.216      862.354
  564      425.661      862.727
  565      426.106      863.082
  566      426.551      863.437
  567      426.996      863.805
  568       427.44      864.185
  569      427.885      864.562
  570       428.33      864.967
  571      428.774      865.398
  572      429.219      865.826
  573      429.663      866.234
  574      430.107      866.649
  575      430.551      867.084
  576      430.996      867.529
  577       431.44      867.968
  578      431.883        868.4
  579      432.327      868.826
  580      432.771      869.229
  581      433.215      869.628
  582      433.658      870.034
  583      434.102      870.443
  584      434.545      870.836
  585      434.988      871.232
  586      435.431      871.632
  587      435.875      872.009
  588      436.318      872.396
  589      436.761      872.833
  590      437.203      873.314
  591      437.646      873.821
