scansci Spectrometer Data File
--- Measurement Setting ---
Type: Sample Spectrum
Date: Fri Nov 22 17:58:25 2024
User: (Reserved by scansci)
Serial: (Reserved by scansci)
Channel: No. 11
Integration Time: 540
Average: 30
Boxcar: 50
Electrical Dark: No-corrected
Time Normalize: (Reserved by scansci)
Dual-beam: (Reserved by scansci)
Reference Ch: (Reserved by scansci)
--- Measurement Data ---
Pixel   Wavelength   Intensity
    0        162.5      842.927
    1      162.985      842.603
    2      163.469      842.208
    3      163.954      841.864
    4      164.439       841.55
    5      164.923      841.152
    6      165.408      840.737
    7      165.892      840.349
    8      166.377      840.016
    9      166.861      839.666
   10      167.345      839.259
   11       167.83      838.942
   12      168.314      838.773
   13      168.798      838.732
   14      169.282      838.809
   15      169.766      839.055
   16       170.25      839.607
   17      170.734      840.104
   18      171.218      840.356
   19      171.702      840.522
   20      172.185      840.524
   21      172.669      840.595
   22      173.153      840.758
   23      173.636      840.741
   24       174.12      840.641
   25      174.603      840.749
   26      175.087      841.087
   27       175.57      841.316
   28      176.053       841.35
   29      176.537      841.373
   30       177.02      841.498
   31      177.503      841.561
   32      177.986      841.491
   33      178.469      841.383
   34      178.952      841.321
   35      179.435      841.204
   36      179.918      841.018
   37      180.401       840.78
   38      180.884        840.5
   39      181.366      840.231
   40      181.849      840.044
   41      182.332      839.882
   42      182.814      839.665
   43      183.297      839.445
   44      183.779      839.257
   45      184.262      839.069
   46      184.744      838.896
   47      185.226      838.721
   48      185.708      838.508
   49      186.191      838.301
   50      186.673      838.157
   51      187.155      838.339
   52      187.637      838.477
   53      188.119      838.543
   54        188.6      838.567
   55      189.082      838.265
   56      189.564      837.725
   57      190.046      837.376
   58      190.527      837.193
   59      191.009      837.116
   60      191.491       836.87
   61      191.972      836.656
   62      192.454        836.7
   63      192.935      836.722
   64      193.416      836.747
   65      193.897       836.71
   66      194.379      836.619
   67       194.86      836.522
   68      195.341      836.422
   69      195.822      836.351
   70      196.303       836.37
   71      196.784      836.597
   72      197.265      836.879
   73      197.746      837.047
   74      198.226      837.146
   75      198.707       837.17
   76      199.188      836.656
   77      199.668      835.779
   78      200.149      835.466
   79      200.629      835.659
   80       201.11      835.933
   81       201.59      836.288
   82       202.07      836.677
   83       202.55      836.984
   84      203.031      837.318
   85      203.511      837.326
   86      203.991      837.087
   87      204.471      836.371
   88      204.951      835.351
   89      205.431      834.798
   90       205.91      834.658
   91       206.39      834.724
   92       206.87      834.707
   93      207.349      834.767
   94      207.829      834.878
   95      208.309      834.961
   96      208.788      835.123
   97      209.267      835.253
   98      209.747      835.297
   99      210.226      835.231
  100      210.705      835.103
  101      211.185      835.059
  102      211.664        835.1
  103      212.143      835.235
  104      212.622      835.383
  105      213.101      835.458
  106      213.579      835.518
  107      214.058      835.594
  108      214.537      835.683
  109      215.016      835.824
  110      215.494      836.023
  111      215.973       836.32
  112      216.452      836.655
  113       216.93      836.775
  114      217.408      836.735
  115      217.887      836.648
  116      218.365      836.542
  117      218.843      836.354
  118      219.321      836.147
  119      219.799      836.137
  120      220.278      836.269
  121      220.755      836.389
  122      221.233      836.372
  123      221.711      836.212
  124      222.189       836.12
  125      222.667       836.15
  126      223.144      836.073
  127      223.622      835.734
  128        224.1      835.417
  129      224.577       835.23
  130      225.055      835.068
  131      225.532      834.839
  132      226.009      834.647
  133      226.486      834.523
  134      226.964      834.439
  135      227.441      834.365
  136      227.918      834.392
  137      228.395       834.49
  138      228.872      834.664
  139      229.349      834.896
  140      229.826      835.078
  141      230.302      835.138
  142      230.779      835.186
  143      231.256      835.296
  144      231.732      835.381
  145      232.209      835.505
  146      232.685      835.646
  147      233.162      835.695
  148      233.638      835.729
  149      234.114       835.79
  150       234.59      835.822
  151      235.066        835.8
  152      235.543       835.75
  153      236.019      835.777
  154      236.495      835.831
  155       236.97      836.046
  156      237.446      836.372
  157      237.922      836.652
  158      238.398      836.921
  159      238.873      837.095
  160      239.349       837.35
  161      239.824      837.597
  162        240.3      837.521
  163      240.775      837.336
  164      241.251       837.32
  165      241.726      837.386
  166      242.201      837.589
  167      242.676      837.883
  168      243.151      838.163
  169      243.626      838.383
  170      244.101        838.5
  171      244.576      838.508
  172      245.051      838.221
  173      245.526      837.821
  174          246      837.582
  175      246.475      837.392
  176       246.95      837.297
  177      247.424      837.285
  178      247.899      837.318
  179      248.373      837.159
  180      248.847      836.609
  181      249.321      836.074
  182      249.796        835.6
  183       250.27       835.32
  184      250.744      835.344
  185      251.218      835.295
  186      251.692      835.285
  187      252.166      835.365
  188      252.639      835.387
  189      253.113      835.306
  190      253.587      835.298
  191       254.06      835.214
  192      254.534      835.031
  193      255.007      834.983
  194      255.481      834.901
  195      255.954      834.788
  196      256.427      834.747
  197      256.901      834.635
  198      257.374       834.54
  199      257.847      834.602
  200       258.32      834.737
  201      258.793      834.884
  202      259.266      835.036
  203      259.739       835.12
  204      260.211      835.106
  205      260.684      835.086
  206      261.157      835.203
  207      261.629      835.374
  208      262.102      835.453
  209      262.574      835.454
  210      263.046      835.449
  211      263.519      835.492
  212      263.991      835.445
  213      264.463      835.275
  214      264.935      835.244
  215      265.407      835.264
  216      265.879      835.229
  217      266.351      835.072
  218      266.823      834.798
  219      267.295      834.594
  220      267.766      834.509
  221      268.238      834.476
  222       268.71      834.441
  223      269.181       834.39
  224      269.653      834.379
  225      270.124      834.406
  226      270.595      834.391
  227      271.066      834.323
  228      271.538      834.307
  229      272.009      834.374
  230       272.48      834.536
  231      272.951      834.705
  232      273.422      834.803
  233      273.892      834.889
  234      274.363       835.03
  235      274.834      835.159
  236      275.305      835.357
  237      275.775      835.587
  238      276.246       835.72
  239      276.716      835.817
  240      277.186      835.838
  241      277.657      835.834
  242      278.127      835.923
  243      278.597      836.274
  244      279.067      836.707
  245      279.537      836.937
  246      280.007      837.016
  247      280.477      837.047
  248      280.947      837.183
  249      281.417      837.438
  250      281.886      837.687
  251      282.356      837.897
  252      282.825      838.158
  253      283.295      838.375
  254      283.764      838.423
  255      284.234      838.409
  256      284.703      838.213
  257      285.172      837.927
  258      285.641      837.718
  259       286.11      837.524
  260      286.579      837.416
  261      287.048      837.219
  262      287.517      836.996
  263      287.986      837.026
  264      288.454      837.204
  265      288.923      837.309
  266      289.392      837.311
  267       289.86      837.169
  268      290.329       837.11
  269      290.797      837.226
  270      291.265      837.308
  271      291.734       837.41
  272      292.202      837.605
  273       292.67      837.836
  274      293.138      837.969
  275      293.606      838.064
  276      294.074      838.145
  277      294.541      838.216
  278      295.009      838.354
  279      295.477      838.537
  280      295.944      838.714
  281      296.412      838.868
  282      296.879      838.986
  283      297.347      839.386
  284      297.814      839.781
  285      298.281      839.829
  286      298.749      839.897
  287      299.216      840.389
  288      299.683      841.095
  289       300.15      841.542
  290      300.616      841.896
  291      301.083      842.085
  292       301.55      842.222
  293      302.017      842.324
  294      302.483      842.336
  295       302.95      842.326
  296      303.416      842.295
  297      303.883      842.437
  298      304.349      842.761
  299      304.815      842.966
  300      305.281      843.033
  301      305.748      843.076
  302      306.214       843.11
  303       306.68      843.033
  304      307.146       842.99
  305      307.611      843.054
  306      308.077      843.052
  307      308.543      842.892
  308      309.008      842.694
  309      309.474      842.592
  310      309.939      842.553
  311      310.405      842.517
  312       310.87      842.624
  313      311.335      842.821
  314        311.8      843.149
  315      312.266      843.516
  316      312.731      843.711
  317      313.196      843.829
  318       313.66      844.106
  319      314.125      844.489
  320       314.59      844.737
  321      315.055      844.748
  322      315.519       844.47
  323      315.984      844.261
  324      316.448      844.271
  325      316.913      844.485
  326      317.377      844.831
  327      317.841      845.178
  328      318.305      845.427
  329      318.769       845.57
  330      319.233      845.637
  331      319.697      845.635
  332      320.161      846.085
  333      320.625      846.885
  334      321.089      847.356
  335      321.552      847.604
  336      322.016      847.723
  337      322.479      847.617
  338      322.943      847.386
  339      323.406      847.259
  340      323.869      847.119
  341      324.333      847.056
  342      324.796      847.083
  343      325.259      847.064
  344      325.722      846.799
  345      326.185      846.428
  346      326.647      846.247
  347       327.11      846.191
  348      327.573      846.215
  349      328.035      846.305
  350      328.498      846.368
  351       328.96      846.345
  352      329.423      846.273
  353      329.885      846.054
  354      330.347      845.813
  355       330.81      845.691
  356      331.272      845.658
  357      331.734      845.987
  358      332.196      846.557
  359      332.657      846.957
  360      333.119      847.231
  361      333.581      847.398
  362      334.043      847.502
  363      334.504      847.543
  364      334.966      847.412
  365      335.427      847.189
  366      335.888       847.02
  367       336.35      846.854
  368      336.811       846.79
  369      337.272      846.681
  370      337.733      846.475
  371      338.194      846.366
  372      338.655      846.268
  373      339.115      846.115
  374      339.576      845.944
  375      340.037      845.879
  376      340.497      845.875
  377      340.958      845.892
  378      341.418      845.882
  379      341.879      845.818
  380      342.339      845.723
  381      342.799      845.684
  382      343.259      845.809
  383      343.719      845.926
  384      344.179      845.716
  385      344.639      845.394
  386      345.099      845.322
  387      345.559      845.413
  388      346.018      845.049
  389      346.478      844.584
  390      346.937      844.499
  391      347.397      844.367
  392      347.856       844.28
  393      348.315      844.167
  394      348.774      844.052
  395      349.234      843.974
  396      349.693      843.967
  397      350.152      844.216
  398       350.61      844.408
  399      351.069      844.362
  400      351.528      844.364
  401      351.987      844.325
  402      352.445      844.198
  403      352.904      844.078
  404      353.362      844.009
  405       353.82      843.917
  406      354.279       843.77
  407      354.737      843.655
  408      355.195      843.653
  409      355.653      843.698
  410      356.111      843.807
  411      356.569       843.98
  412      357.027      844.096
  413      357.484      844.108
  414      357.942      844.094
  415      358.399      843.894
  416      358.857      843.563
  417      359.314       843.37
  418      359.772      843.285
  419      360.229      843.072
  420      360.686      842.722
  421      361.143      842.617
  422        361.6      842.729
  423      362.057      842.956
  424      362.514      843.178
  425      362.971      843.191
  426      363.427      842.954
  427      363.884       842.59
  428       364.34      842.216
  429      364.797      841.934
  430      365.253      841.764
  431      365.709        841.6
  432      366.166      841.474
  433      366.622      840.941
  434      367.078      840.203
  435      367.534      839.832
  436       367.99      839.545
  437      368.445      839.361
  438      368.901      839.312
  439      369.357      839.314
  440      369.812      839.321
  441      370.268      839.364
  442      370.723      839.417
  443      371.179       839.56
  444      371.634      839.721
  445      372.089      839.791
  446      372.544      839.819
  447      372.999      839.853
  448      373.454      839.829
  449      373.909      839.735
  450      374.364      839.562
  451      374.818      839.288
  452      375.273      839.146
  453      375.727      839.159
  454      376.182      839.219
  455      376.636        839.3
  456       377.09      839.425
  457      377.545      839.561
  458      377.999      839.412
  459      378.453      839.079
  460      378.907      838.883
  461      379.361      838.802
  462      379.814      838.774
  463      380.268      838.748
  464      380.722      838.838
  465      381.175      838.993
  466      381.629      839.104
  467      382.082      839.237
  468      382.535      839.388
  469      382.989      839.418
  470      383.442      839.403
  471      383.895      839.415
  472      384.348      839.456
  473      384.801       839.49
  474      385.253      839.488
  475      385.706      839.466
  476      386.159      839.467
  477      386.611      839.508
  478      387.064      839.728
  479      387.516       840.15
  480      387.968      840.486
  481      388.421      840.721
  482      388.873      840.813
  483      389.325      840.921
  484      389.777      841.146
  485      390.229       841.41
  486      390.681      842.129
  487      391.132      842.955
  488      391.584      843.322
  489      392.035      843.579
  490      392.487      843.611
  491      392.938      843.527
  492       393.39      843.606
  493      393.841      843.768
  494      394.292       844.14
  495      394.743      844.652
  496      395.194      845.021
  497      395.645      845.172
  498      396.096      845.039
  499      396.546      844.879
  500      396.997      844.814
  501      397.448       844.83
  502      397.898       844.98
  503      398.349      845.162
  504      398.799      845.369
  505      399.249      845.633
  506      399.699       845.92
  507      400.149      846.133
  508      400.599      846.314
  509      401.049      846.437
  510      401.499      846.646
  511      401.949      846.837
  512      402.398      846.877
  513      402.848      846.885
  514      403.297      846.773
  515      403.747       846.61
  516      404.196      846.533
  517      404.645      846.519
  518      405.094      846.537
  519      405.543      846.555
  520      405.992      846.639
  521      406.441       846.75
  522       406.89      846.685
  523      407.339       846.72
  524      407.787      846.937
  525      408.236      847.027
  526      408.684      847.369
  527      409.132      847.965
  528      409.581      848.333
  529      410.029      848.512
  530      410.477      848.602
  531      410.925      848.637
  532      411.373      848.695
  533      411.821      848.904
  534      412.269       849.15
  535      412.716      849.183
  536      413.164      849.146
  537      413.611      849.215
  538      414.059      849.284
  539      414.506      849.327
  540      414.953      849.409
  541        415.4      849.468
  542      415.847      849.477
  543      416.294      849.465
  544      416.741      849.383
  545      417.188      849.269
  546      417.635      849.181
  547      418.081      849.134
  548      418.528      849.122
  549      418.974      849.166
  550      419.421      849.222
  551      419.867      849.281
  552      420.313      849.439
  553      420.759      849.601
  554      421.205      849.739
  555      421.651      849.928
  556      422.097      850.066
  557      422.543      850.067
  558      422.989      850.017
  559      423.434      849.936
  560       423.88      849.783
  561      424.325      849.674
  562       424.77      849.602
  563      425.216      849.597
  564      425.661      849.643
  565      426.106      849.637
  566      426.551      849.661
  567      426.996      849.814
  568       427.44      850.028
  569      427.885      850.201
  570       428.33      850.467
  571      428.774      850.747
  572      429.219      850.918
  573      429.663      851.046
  574      430.107      851.177
  575      430.551       851.32
  576      430.996      851.463
  577       431.44      851.528
  578      431.883      851.531
  579      432.327      851.377
  580      432.771      851.043
  581      433.215      850.718
  582      433.658       850.45
  583      434.102      850.292
  584      434.545      849.997
  585      434.988      849.653
  586      435.431      849.306
  587      435.875      848.417
  588      436.318      847.375
  589      436.761      846.731
  590      437.203      846.315
  591      437.646      846.054
