scansci Spectrometer Data File
--- Measurement Setting ---
Type: Sample Spectrum
Date: Fri Nov 22 17:59:04 2024
User: (Reserved by scansci)
Serial: (Reserved by scansci)
Channel: No. 11
Integration Time: 100
Average: 30
Boxcar: 50
Electrical Dark: No-corrected
Time Normalize: (Reserved by scansci)
Dual-beam: (Reserved by scansci)
Reference Ch: (Reserved by scansci)
--- Measurement Data ---
Pixel   Wavelength   Intensity
    0        162.5      822.286
    1      162.985      822.228
    2      163.469      822.175
    3      163.954      822.143
    4      164.439      822.093
    5      164.923      822.027
    6      165.408      821.967
    7      165.892      821.929
    8      166.377      821.909
    9      166.861      821.889
   10      167.345      821.854
   11       167.83      821.817
   12      168.314      821.816
   13      168.798      821.849
   14      169.282      821.903
   15      169.766      821.973
   16       170.25      822.082
   17      170.734      822.189
   18      171.218      822.259
   19      171.702      822.309
   20      172.185      822.325
   21      172.669      822.349
   22      173.153      822.387
   23      173.636      822.392
   24       174.12       822.36
   25      174.603      822.355
   26      175.087      822.408
   27       175.57      822.462
   28      176.053      822.476
   29      176.537      822.484
   30       177.02        822.5
   31      177.503      822.497
   32      177.986      822.467
   33      178.469      822.433
   34      178.952      822.425
   35      179.435      822.409
   36      179.918      822.372
   37      180.401      822.339
   38      180.884      822.319
   39      181.366      822.295
   40      181.849      822.277
   41      182.332      822.262
   42      182.814      822.238
   43      183.297      822.206
   44      183.779      822.168
   45      184.262      822.118
   46      184.744      822.075
   47      185.226      822.035
   48      185.708      821.985
   49      186.191      821.941
   50      186.673      821.925
   51      187.155      822.175
   52      187.637      822.323
   53      188.119      822.404
   54        188.6      822.455
   55      189.082      822.434
   56      189.564      822.362
   57      190.046      822.338
   58      190.527      822.356
   59      191.009      822.397
   60      191.491      822.399
   61      191.972      822.386
   62      192.454      822.408
   63      192.935      822.413
   64      193.416      822.424
   65      193.897       822.44
   66      194.379      822.421
   67       194.86      822.388
   68      195.341       822.36
   69      195.822      822.344
   70      196.303      822.353
   71      196.784      822.389
   72      197.265      822.442
   73      197.746      822.495
   74      198.226      822.532
   75      198.707      822.553
   76      199.188      822.481
   77      199.668      822.348
   78      200.149      822.324
   79      200.629        822.4
   80       201.11      822.496
   81       201.59      822.584
   82       202.07      822.675
   83       202.55      822.749
   84      203.031      822.818
   85      203.511      822.833
   86      203.991      822.806
   87      204.471      822.687
   88      204.951      822.513
   89      205.431      822.431
   90       205.91      822.427
   91       206.39      822.472
   92       206.87      822.483
   93      207.349      822.482
   94      207.829      822.504
   95      208.309      822.531
   96      208.788      822.581
   97      209.267      822.628
   98      209.747      822.651
   99      210.226      822.666
  100      210.705      822.654
  101      211.185      822.647
  102      211.664      822.663
  103      212.143      822.687
  104      212.622      822.711
  105      213.101      822.729
  106      213.579      822.747
  107      214.058      822.761
  108      214.537       822.77
  109      215.016      822.791
  110      215.494      822.826
  111      215.973      822.875
  112      216.452      822.934
  113       216.93      822.954
  114      217.408      822.933
  115      217.887      822.908
  116      218.365      822.894
  117      218.843      822.868
  118      219.321      822.823
  119      219.799      822.816
  120      220.278      822.836
  121      220.755      822.853
  122      221.233      822.867
  123      221.711      822.857
  124      222.189      822.863
  125      222.667      822.914
  126      223.144      822.941
  127      223.622      822.905
  128        224.1      822.854
  129      224.577       822.84
  130      225.055      822.857
  131      225.532      822.885
  132      226.009      822.915
  133      226.486      822.955
  134      226.964      822.994
  135      227.441      823.013
  136      227.918      823.037
  137      228.395      823.068
  138      228.872      823.104
  139      229.349      823.142
  140      229.826       823.18
  141      230.302        823.2
  142      230.779      823.219
  143      231.256      823.263
  144      231.732      823.305
  145      232.209      823.365
  146      232.685      823.445
  147      233.162      823.517
  148      233.638      823.592
  149      234.114      823.664
  150       234.59      823.713
  151      235.066      823.728
  152      235.543      823.725
  153      236.019      823.728
  154      236.495      823.735
  155       236.97       823.78
  156      237.446      823.872
  157      237.922      823.988
  158      238.398      824.085
  159      238.873      824.145
  160      239.349      824.212
  161      239.824      824.266
  162        240.3      824.267
  163      240.775      824.274
  164      241.251      824.316
  165      241.726      824.359
  166      242.201      824.412
  167      242.676      824.496
  168      243.151      824.586
  169      243.626      824.681
  170      244.101      824.765
  171      244.576      824.832
  172      245.051      824.837
  173      245.526      824.803
  174          246       824.78
  175      246.475      824.754
  176       246.95      824.732
  177      247.424      824.735
  178      247.899      824.767
  179      248.373       824.75
  180      248.847      824.659
  181      249.321      824.574
  182      249.796      824.504
  183       250.27      824.495
  184      250.744      824.551
  185      251.218       824.59
  186      251.692      824.638
  187      252.166      824.715
  188      252.639      824.779
  189      253.113      824.818
  190      253.587      824.862
  191       254.06      824.873
  192      254.534      824.859
  193      255.007      824.901
  194      255.481      824.947
  195      255.954      824.983
  196      256.427      825.044
  197      256.901      825.071
  198      257.374      825.084
  199      257.847      825.112
  200       258.32      825.166
  201      258.793       825.26
  202      259.266       825.36
  203      259.739      825.443
  204      260.211      825.516
  205      260.684      825.592
  206      261.157      825.703
  207      261.629      825.816
  208      262.102      825.908
  209      262.574      825.985
  210      263.046      826.045
  211      263.519      826.097
  212      263.991      826.135
  213      264.463      826.163
  214      264.935      826.224
  215      265.407      826.298
  216      265.879      826.357
  217      266.351      826.406
  218      266.823      826.443
  219      267.295      826.498
  220      267.766      826.564
  221      268.238      826.638
  222       268.71      826.717
  223      269.181      826.781
  224      269.653      826.836
  225      270.124      826.888
  226      270.595      826.929
  227      271.066       826.98
  228      271.538      827.036
  229      272.009        827.1
  230       272.48      827.182
  231      272.951      827.254
  232      273.422      827.305
  233      273.892      827.366
  234      274.363      827.435
  235      274.834      827.504
  236      275.305      827.589
  237      275.775      827.694
  238      276.246      827.785
  239      276.716       827.87
  240      277.186      827.945
  241      277.657      828.009
  242      278.127      828.089
  243      278.597       828.23
  244      279.067       828.38
  245      279.537      828.488
  246      280.007       828.57
  247      280.477      828.631
  248      280.947      828.694
  249      281.417      828.776
  250      281.886      828.875
  251      282.356      828.973
  252      282.825      829.091
  253      283.295      829.201
  254      283.764      829.282
  255      284.234      829.371
  256      284.703      829.424
  257      285.172      829.444
  258      285.641      829.463
  259       286.11      829.501
  260      286.579      829.546
  261      287.048      829.552
  262      287.517      829.565
  263      287.986      829.642
  264      288.454      829.731
  265      288.923      829.813
  266      289.392      829.894
  267       289.86      829.967
  268      290.329      830.045
  269      290.797      830.147
  270      291.265      830.226
  271      291.734      830.295
  272      292.202      830.379
  273       292.67      830.484
  274      293.138      830.595
  275      293.606      830.719
  276      294.074       830.87
  277      294.541      831.045
  278      295.009      831.215
  279      295.477      831.359
  280      295.944      831.504
  281      296.412      831.631
  282      296.879      831.742
  283      297.347      831.925
  284      297.814      832.102
  285      298.281      832.178
  286      298.749      832.251
  287      299.216      832.412
  288      299.683      832.599
  289       300.15      832.743
  290      300.616      832.883
  291      301.083      833.012
  292       301.55      833.144
  293      302.017      833.266
  294      302.483       833.34
  295       302.95      833.404
  296      303.416      833.459
  297      303.883      833.521
  298      304.349      833.619
  299      304.815      833.717
  300      305.281      833.833
  301      305.748      833.946
  302      306.214       834.03
  303       306.68      834.088
  304      307.146      834.169
  305      307.611      834.268
  306      308.077       834.33
  307      308.543       834.35
  308      309.008       834.38
  309      309.474      834.437
  310      309.939      834.502
  311      310.405      834.587
  312       310.87      834.713
  313      311.335      834.865
  314        311.8      835.037
  315      312.266      835.193
  316      312.731      835.303
  317      313.196      835.385
  318       313.66       835.48
  319      314.125      835.601
  320       314.59      835.721
  321      315.055      835.823
  322      315.519      835.889
  323      315.984      835.956
  324      316.448      836.046
  325      316.913      836.199
  326      317.377      836.366
  327      317.841       836.53
  328      318.305      836.671
  329      318.769      836.794
  330      319.233      836.911
  331      319.697      837.012
  332      320.161      837.186
  333      320.625      837.414
  334      321.089      837.569
  335      321.552      837.689
  336      322.016      837.799
  337      322.479       837.87
  338      322.943      837.911
  339      323.406      837.965
  340      323.869      838.007
  341      324.333      838.051
  342      324.796      838.118
  343      325.259      838.168
  344      325.722      838.144
  345      326.185      838.086
  346      326.647      838.077
  347       327.11      838.097
  348      327.573      838.112
  349      328.035      838.134
  350      328.498      838.159
  351       328.96      838.163
  352      329.423      838.175
  353      329.885      838.176
  354      330.347       838.16
  355       330.81      838.153
  356      331.272      838.146
  357      331.734      838.215
  358      332.196      838.335
  359      332.657      838.411
  360      333.119      838.458
  361      333.581      838.503
  362      334.043      838.564
  363      334.504      838.605
  364      334.966      838.592
  365      335.427      838.553
  366      335.888      838.523
  367       336.35        838.5
  368      336.811      838.505
  369      337.272        838.5
  370      337.733      838.475
  371      338.194       838.48
  372      338.655      838.481
  373      339.115       838.45
  374      339.576      838.406
  375      340.037      838.377
  376      340.497      838.354
  377      340.958      838.318
  378      341.418      838.264
  379      341.879      838.215
  380      342.339      838.174
  381      342.799       838.14
  382      343.259      838.147
  383      343.719      838.165
  384      344.179      838.122
  385      344.639      838.069
  386      345.099      838.079
  387      345.559      838.113
  388      346.018      838.045
  389      346.478      837.959
  390      346.937       837.93
  391      347.397      837.898
  392      347.856      837.882
  393      348.315      837.849
  394      348.774      837.799
  395      349.234      837.756
  396      349.693      837.717
  397      350.152       837.72
  398       350.61      837.733
  399      351.069      837.716
  400      351.528      837.709
  401      351.987      837.669
  402      352.445      837.589
  403      352.904      837.528
  404      353.362      837.492
  405       353.82      837.435
  406      354.279      837.368
  407      354.737      837.325
  408      355.195      837.309
  409      355.653      837.283
  410      356.111      837.265
  411      356.569      837.271
  412      357.027      837.258
  413      357.484      837.217
  414      357.942      837.153
  415      358.399       837.05
  416      358.857      836.942
  417      359.314      836.866
  418      359.772      836.819
  419      360.229      836.766
  420      360.686      836.689
  421      361.143      836.645
  422        361.6      836.613
  423      362.057      836.571
  424      362.514      836.543
  425      362.971       836.49
  426      363.427      836.367
  427      363.884      836.229
  428       364.34      836.081
  429      364.797      835.943
  430      365.253      835.845
  431      365.709      835.764
  432      366.166      835.683
  433      366.622      835.519
  434      367.078      835.331
  435      367.534      835.222
  436       367.99      835.141
  437      368.445      835.066
  438      368.901      835.018
  439      369.357      834.969
  440      369.812       834.94
  441      370.268      834.932
  442      370.723      834.929
  443      371.179      834.928
  444      371.634      834.937
  445      372.089      834.945
  446      372.544      834.958
  447      372.999      834.954
  448      373.454      834.925
  449      373.909      834.923
  450      374.364      834.917
  451      374.818       834.89
  452      375.273      834.883
  453      375.727      834.888
  454      376.182      834.899
  455      376.636      834.918
  456       377.09      834.963
  457      377.545      835.027
  458      377.999      835.013
  459      378.453      834.939
  460      378.907        834.9
  461      379.361       834.88
  462      379.814       834.86
  463      380.268      834.851
  464      380.722      834.872
  465      381.175      834.924
  466      381.629      834.964
  467      382.082      834.987
  468      382.535      834.993
  469      382.989      834.959
  470      383.442      834.927
  471      383.895      834.911
  472      384.348      834.902
  473      384.801      834.901
  474      385.253      834.912
  475      385.706      834.914
  476      386.159      834.907
  477      386.611      834.917
  478      387.064      834.979
  479      387.516      835.089
  480      387.968      835.176
  481      388.421      835.239
  482      388.873      835.264
  483      389.325      835.282
  484      389.777      835.304
  485      390.229      835.325
  486      390.681      835.428
  487      391.132      835.552
  488      391.584      835.599
  489      392.035      835.627
  490      392.487      835.623
  491      392.938      835.625
  492       393.39      835.661
  493      393.841      835.709
  494      394.292      835.809
  495      394.743      835.937
  496      395.194      836.033
  497      395.645       836.11
  498      396.096      836.138
  499      396.546      836.153
  500      396.997      836.175
  501      397.448      836.209
  502      397.898      836.274
  503      398.349      836.344
  504      398.799      836.396
  505      399.249      836.453
  506      399.699      836.525
  507      400.149      836.587
  508      400.599      836.637
  509      401.049      836.679
  510      401.499      836.752
  511      401.949      836.804
  512      402.398      836.804
  513      402.848      836.798
  514      403.297       836.79
  515      403.747      836.788
  516      404.196      836.793
  517      404.645      836.795
  518      405.094      836.806
  519      405.543      836.821
  520      405.992      836.829
  521      406.441      836.818
  522       406.89      836.773
  523      407.339      836.751
  524      407.787      836.787
  525      408.236      836.808
  526      408.684      836.876
  527      409.132      837.015
  528      409.581      837.129
  529      410.029      837.215
  530      410.477      837.279
  531      410.925      837.319
  532      411.373      837.356
  533      411.821      837.421
  534      412.269      837.501
  535      412.716      837.537
  536      413.164      837.569
  537      413.611      837.601
  538      414.059      837.613
  539      414.506      837.606
  540      414.953      837.634
  541        415.4      837.671
  542      415.847       837.69
  543      416.294      837.696
  544      416.741      837.702
  545      417.188      837.698
  546      417.635      837.687
  547      418.081      837.662
  548      418.528      837.652
  549      418.974      837.683
  550      419.421       837.73
  551      419.867      837.783
  552      420.313      837.848
  553      420.759      837.934
  554      421.205       838.02
  555      421.651       838.09
  556      422.097      838.138
  557      422.543      838.145
  558      422.989      838.125
  559      423.434      838.103
  560       423.88      838.075
  561      424.325       838.06
  562       424.77      838.056
  563      425.216      838.076
  564      425.661      838.116
  565      426.106      838.162
  566      426.551      838.202
  567      426.996      838.287
  568       427.44        838.4
  569      427.885      838.489
  570       428.33      838.581
  571      428.774      838.656
  572      429.219      838.708
  573      429.663      838.748
  574      430.107      838.785
  575      430.551      838.815
  576      430.996      838.841
  577       431.44       838.86
  578      431.883      838.865
  579      432.327      838.835
  580      432.771      838.768
  581      433.215      838.691
  582      433.658       838.62
  583      434.102      838.589
  584      434.545      838.531
  585      434.988      838.463
  586      435.431      838.398
  587      435.875      838.236
  588      436.318      838.063
  589      436.761      837.971
  590      437.203      837.922
  591      437.646      837.899
