scansci Spectrometer Data File
--- Measurement Setting ---
Type: Sample Spectrum
Date: Fri Nov 22 17:59:41 2024
User: (Reserved by scansci)
Serial: (Reserved by scansci)
Channel: No. 11
Integration Time: 101
Average: 30
Boxcar: 50
Electrical Dark: No-corrected
Time Normalize: (Reserved by scansci)
Dual-beam: (Reserved by scansci)
Reference Ch: (Reserved by scansci)
--- Measurement Data ---
Pixel   Wavelength   Intensity
    0        162.5      836.302
    1      162.985      836.254
    2      163.469      836.177
    3      163.954      836.087
    4      164.439      836.027
    5      164.923      835.971
    6      165.408      835.899
    7      165.892      835.825
    8      166.377      835.773
    9      166.861      835.706
   10      167.345      835.617
   11       167.83      835.577
   12      168.314      835.594
   13      168.798      835.634
   14      169.282      835.684
   15      169.766      835.749
   16       170.25      835.868
   17      170.734      835.979
   18      171.218      836.053
   19      171.702      836.094
   20      172.185      836.099
   21      172.669      836.103
   22      173.153      836.108
   23      173.636      836.077
   24       174.12      836.034
   25      174.603      836.057
   26      175.087      836.115
   27       175.57      836.159
   28      176.053      836.188
   29      176.537      836.218
   30       177.02       836.27
   31      177.503      836.301
   32      177.986        836.3
   33      178.469      836.294
   34      178.952      836.292
   35      179.435      836.262
   36      179.918      836.202
   37      180.401      836.139
   38      180.884      836.078
   39      181.366      836.029
   40      181.849      836.001
   41      182.332      835.976
   42      182.814      835.929
   43      183.297      835.882
   44      183.779      835.834
   45      184.262      835.798
   46      184.744      835.775
   47      185.226      835.743
   48      185.708      835.689
   49      186.191      835.632
   50      186.673      835.612
   51      187.155      835.895
   52      187.637      836.045
   53      188.119      836.112
   54        188.6      836.154
   55      189.082      836.142
   56      189.564      836.089
   57      190.046      836.073
   58      190.527      836.069
   59      191.009      836.057
   60      191.491      836.004
   61      191.972      835.953
   62      192.454       835.97
   63      192.935      835.992
   64      193.416      835.995
   65      193.897       835.97
   66      194.379      835.933
   67       194.86      835.905
   68      195.341       835.88
   69      195.822      835.851
   70      196.303      835.849
   71      196.784      835.879
   72      197.265      835.915
   73      197.746      835.935
   74      198.226      835.942
   75      198.707      835.915
   76      199.188      835.778
   77      199.668      835.608
   78      200.149      835.571
   79      200.629      835.631
   80       201.11      835.695
   81       201.59      835.761
   82       202.07      835.826
   83       202.55      835.883
   84      203.031      835.963
   85      203.511      835.999
   86      203.991      835.983
   87      204.471      835.874
   88      204.951      835.706
   89      205.431      835.601
   90       205.91      835.564
   91       206.39       835.57
   92       206.87      835.561
   93      207.349       835.58
   94      207.829      835.603
   95      208.309      835.604
   96      208.788       835.62
   97      209.267      835.652
   98      209.747      835.693
   99      210.226       835.72
  100      210.705      835.713
  101      211.185      835.692
  102      211.664      835.696
  103      212.143      835.713
  104      212.622      835.753
  105      213.101      835.792
  106      213.579      835.821
  107      214.058      835.842
  108      214.537      835.843
  109      215.016      835.851
  110      215.494      835.886
  111      215.973      835.945
  112      216.452          836
  113       216.93      835.982
  114      217.408      835.933
  115      217.887      835.888
  116      218.365      835.846
  117      218.843      835.796
  118      219.321      835.738
  119      219.799      835.695
  120      220.278      835.677
  121      220.755      835.678
  122      221.233      835.673
  123      221.711      835.648
  124      222.189      835.631
  125      222.667      835.636
  126      223.144      835.604
  127      223.622      835.541
  128        224.1      835.484
  129      224.577       835.43
  130      225.055      835.375
  131      225.532      835.289
  132      226.009      835.205
  133      226.486      835.136
  134      226.964      835.082
  135      227.441      835.035
  136      227.918      835.017
  137      228.395      835.038
  138      228.872      835.084
  139      229.349      835.128
  140      229.826      835.154
  141      230.302      835.149
  142      230.779      835.137
  143      231.256      835.158
  144      231.732      835.194
  145      232.209      835.246
  146      232.685      835.278
  147      233.162      835.265
  148      233.638      835.256
  149      234.114       835.27
  150       234.59      835.295
  151      235.066      835.293
  152      235.543      835.283
  153      236.019      835.291
  154      236.495      835.315
  155       236.97      835.369
  156      237.446      835.437
  157      237.922      835.466
  158      238.398      835.476
  159      238.873      835.506
  160      239.349      835.571
  161      239.824      835.618
  162        240.3        835.6
  163      240.775       835.55
  164      241.251      835.525
  165      241.726      835.547
  166      242.201      835.604
  167      242.676      835.672
  168      243.151      835.742
  169      243.626      835.812
  170      244.101      835.872
  171      244.576      835.889
  172      245.051       835.85
  173      245.526      835.794
  174          246      835.768
  175      246.475      835.742
  176       246.95      835.732
  177      247.424      835.743
  178      247.899      835.768
  179      248.373      835.749
  180      248.847      835.641
  181      249.321      835.563
  182      249.796      835.506
  183       250.27      835.472
  184      250.744      835.473
  185      251.218       835.43
  186      251.692      835.382
  187      252.166      835.359
  188      252.639      835.344
  189      253.113       835.33
  190      253.587      835.333
  191       254.06       835.33
  192      254.534      835.315
  193      255.007      835.326
  194      255.481      835.328
  195      255.954      835.329
  196      256.427      835.349
  197      256.901      835.354
  198      257.374      835.349
  199      257.847      835.347
  200       258.32      835.346
  201      258.793      835.367
  202      259.266      835.408
  203      259.739      835.431
  204      260.211       835.44
  205      260.684      835.447
  206      261.157      835.472
  207      261.629       835.51
  208      262.102      835.565
  209      262.574      835.624
  210      263.046      835.655
  211      263.519       835.67
  212      263.991      835.664
  213      264.463      835.632
  214      264.935      835.651
  215      265.407      835.675
  216      265.879      835.674
  217      266.351       835.65
  218      266.823      835.605
  219      267.295        835.6
  220      267.766      835.642
  221      268.238       835.69
  222       268.71      835.712
  223      269.181      835.716
  224      269.653      835.739
  225      270.124      835.783
  226      270.595      835.824
  227      271.066      835.844
  228      271.538      835.868
  229      272.009      835.896
  230       272.48      835.937
  231      272.951      835.987
  232      273.422      836.049
  233      273.892      836.114
  234      274.363      836.186
  235      274.834       836.25
  236      275.305      836.335
  237      275.775      836.433
  238      276.246      836.482
  239      276.716      836.502
  240      277.186      836.523
  241      277.657      836.564
  242      278.127      836.633
  243      278.597      836.754
  244      279.067      836.873
  245      279.537      836.926
  246      280.007       836.95
  247      280.477      836.979
  248      280.947      837.047
  249      281.417      837.131
  250      281.886      837.215
  251      282.356      837.291
  252      282.825      837.378
  253      283.295      837.447
  254      283.764      837.479
  255      284.234      837.495
  256      284.703      837.469
  257      285.172      837.427
  258      285.641      837.423
  259       286.11      837.444
  260      286.579      837.464
  261      287.048      837.448
  262      287.517      837.439
  263      287.986      837.495
  264      288.454      837.599
  265      288.923      837.688
  266      289.392      837.743
  267       289.86      837.756
  268      290.329      837.782
  269      290.797      837.833
  270      291.265      837.868
  271      291.734      837.905
  272      292.202       837.97
  273       292.67      838.037
  274      293.138      838.092
  275      293.606      838.131
  276      294.074      838.162
  277      294.541      838.205
  278      295.009      838.266
  279      295.477       838.34
  280      295.944      838.424
  281      296.412      838.502
  282      296.879      838.559
  283      297.347      838.672
  284      297.814      838.785
  285      298.281      838.843
  286      298.749      838.903
  287      299.216      839.043
  288      299.683      839.231
  289       300.15      839.356
  290      300.616      839.442
  291      301.083      839.519
  292       301.55      839.601
  293      302.017      839.662
  294      302.483       839.69
  295       302.95      839.716
  296      303.416      839.747
  297      303.883      839.815
  298      304.349      839.929
  299      304.815       840.03
  300      305.281      840.107
  301      305.748      840.209
  302      306.214      840.326
  303       306.68      840.392
  304      307.146       840.47
  305      307.611      840.595
  306      308.077       840.69
  307      308.543      840.732
  308      309.008       840.75
  309      309.474      840.783
  310      309.939      840.833
  311      310.405      840.883
  312       310.87      840.961
  313      311.335      841.068
  314        311.8      841.202
  315      312.266      841.345
  316      312.731      841.463
  317      313.196      841.573
  318       313.66      841.715
  319      314.125      841.866
  320       314.59      841.964
  321      315.055      842.009
  322      315.519      842.024
  323      315.984      842.076
  324      316.448      842.177
  325      316.913      842.291
  326      317.377      842.404
  327      317.841      842.508
  328      318.305      842.608
  329      318.769      842.692
  330      319.233      842.767
  331      319.697      842.838
  332      320.161       842.99
  333      320.625      843.206
  334      321.089      843.378
  335      321.552       843.53
  336      322.016      843.647
  337      322.479      843.689
  338      322.943      843.696
  339      323.406      843.742
  340      323.869      843.801
  341      324.333      843.872
  342      324.796      843.944
  343      325.259      844.009
  344      325.722      844.041
  345      326.185      844.042
  346      326.647      844.087
  347       327.11      844.158
  348      327.573      844.231
  349      328.035        844.3
  350      328.498      844.382
  351       328.96      844.448
  352      329.423      844.487
  353      329.885      844.492
  354      330.347      844.497
  355       330.81      844.518
  356      331.272      844.539
  357      331.734      844.637
  358      332.196      844.797
  359      332.657      844.926
  360      333.119      845.026
  361      333.581      845.112
  362      334.043      845.217
  363      334.504      845.321
  364      334.966      845.366
  365      335.427      845.364
  366      335.888      845.381
  367       336.35      845.403
  368      336.811      845.472
  369      337.272      845.546
  370      337.733      845.593
  371      338.194       845.65
  372      338.655      845.709
  373      339.115       845.77
  374      339.576      845.835
  375      340.037      845.909
  376      340.497      845.987
  377      340.958      846.077
  378      341.418      846.152
  379      341.879      846.219
  380      342.339      846.265
  381      342.799      846.292
  382      343.259      846.342
  383      343.719      846.384
  384      344.179      846.378
  385      344.639      846.389
  386      345.099      846.469
  387      345.559      846.577
  388      346.018      846.588
  389      346.478      846.583
  390      346.937      846.645
  391      347.397      846.679
  392      347.856       846.72
  393      348.315      846.745
  394      348.774      846.763
  395      349.234      846.785
  396      349.693      846.816
  397      350.152      846.914
  398       350.61      847.017
  399      351.069      847.061
  400      351.528      847.125
  401      351.987      847.196
  402      352.445      847.228
  403      352.904      847.238
  404      353.362      847.267
  405       353.82      847.281
  406      354.279      847.266
  407      354.737      847.261
  408      355.195      847.301
  409      355.653      847.363
  410      356.111      847.418
  411      356.569      847.489
  412      357.027      847.573
  413      357.484      847.648
  414      357.942      847.707
  415      358.399      847.713
  416      358.857      847.698
  417      359.314      847.716
  418      359.772      847.749
  419      360.229      847.758
  420      360.686      847.748
  421      361.143      847.791
  422        361.6      847.882
  423      362.057      847.991
  424      362.514      848.077
  425      362.971      848.116
  426      363.427      848.121
  427      363.884      848.129
  428       364.34      848.145
  429      364.797      848.136
  430      365.253      848.135
  431      365.709      848.161
  432      366.166      848.191
  433      366.622      848.147
  434      367.078      848.059
  435      367.534      848.021
  436       367.99      847.985
  437      368.445      847.967
  438      368.901      848.001
  439      369.357      848.056
  440      369.812      848.113
  441      370.268      848.165
  442      370.723      848.213
  443      371.179      848.269
  444      371.634      848.315
  445      372.089      848.315
  446      372.544      848.325
  447      372.999      848.341
  448      373.454      848.333
  449      373.909      848.337
  450      374.364      848.349
  451      374.818      848.321
  452      375.273      848.305
  453      375.727      848.325
  454      376.182      848.353
  455      376.636      848.396
  456       377.09      848.462
  457      377.545      848.541
  458      377.999      848.557
  459      378.453      848.523
  460      378.907       848.52
  461      379.361      848.533
  462      379.814      848.533
  463      380.268      848.514
  464      380.722      848.508
  465      381.175      848.525
  466      381.629      848.542
  467      382.082      848.545
  468      382.535       848.56
  469      382.989      848.555
  470      383.442      848.522
  471      383.895      848.501
  472      384.348      848.494
  473      384.801      848.471
  474      385.253      848.431
  475      385.706      848.377
  476      386.159      848.317
  477      386.611      848.278
  478      387.064      848.281
  479      387.516      848.331
  480      387.968      848.369
  481      388.421      848.384
  482      388.873      848.386
  483      389.325      848.417
  484      389.777       848.48
  485      390.229      848.523
  486      390.681      848.637
  487      391.132      848.752
  488      391.584      848.786
  489      392.035      848.799
  490      392.487      848.751
  491      392.938      848.689
  492       393.39      848.689
  493      393.841      848.704
  494      394.292      848.763
  495      394.743      848.858
  496      395.194      848.931
  497      395.645      848.971
  498      396.096      848.934
  499      396.546      848.843
  500      396.997      848.754
  501      397.448      848.691
  502      397.898      848.662
  503      398.349      848.643
  504      398.799      848.637
  505      399.249      848.657
  506      399.699      848.693
  507      400.149      848.706
  508      400.599      848.709
  509      401.049      848.681
  510      401.499      848.675
  511      401.949      848.683
  512      402.398      848.644
  513      402.848      848.584
  514      403.297       848.52
  515      403.747      848.456
  516      404.196      848.409
  517      404.645      848.352
  518      405.094      848.297
  519      405.543      848.241
  520      405.992      848.196
  521      406.441      848.176
  522       406.89      848.127
  523      407.339      848.087
  524      407.787      848.068
  525      408.236      848.011
  526      408.684      848.021
  527      409.132      848.087
  528      409.581      848.101
  529      410.029      848.074
  530      410.477      848.052
  531      410.925      848.019
  532      411.373      847.967
  533      411.821      847.964
  534      412.269      847.977
  535      412.716       847.93
  536      413.164      847.862
  537      413.611      847.826
  538      414.059      847.801
  539      414.506      847.754
  540      414.953      847.705
  541        415.4      847.653
  542      415.847      847.597
  543      416.294      847.546
  544      416.741      847.494
  545      417.188      847.435
  546      417.635      847.414
  547      418.081      847.404
  548      418.528      847.389
  549      418.974      847.402
  550      419.421       847.41
  551      419.867      847.415
  552      420.313      847.464
  553      420.759      847.522
  554      421.205      847.565
  555      421.651      847.604
  556      422.097      847.624
  557      422.543      847.614
  558      422.989      847.587
  559      423.434      847.546
  560       423.88      847.473
  561      424.325       847.41
  562       424.77      847.384
  563      425.216      847.391
  564      425.661      847.405
  565      426.106      847.412
  566      426.551      847.428
  567      426.996       847.47
  568       427.44      847.524
  569      427.885      847.537
  570       428.33      847.542
  571      428.774       847.58
  572      429.219      847.618
  573      429.663       847.63
  574      430.107      847.641
  575      430.551      847.639
  576      430.996      847.637
  577       431.44      847.632
  578      431.883      847.628
  579      432.327      847.603
  580      432.771      847.537
  581      433.215      847.466
  582      433.658      847.418
  583      434.102      847.392
  584      434.545      847.317
  585      434.988      847.235
  586      435.431      847.163
  587      435.875      846.963
  588      436.318      846.742
  589      436.761      846.616
  590      437.203      846.535
  591      437.646      846.458
