scansci Spectrometer Data File
--- Measurement Setting ---
Type: Sample Spectrum
Date: Fri Nov 29 18:32:13 2024
User: (Reserved by scansci)
Serial: (Reserved by scansci)
Channel: No. 11
Integration Time: 100
Average: 10
Boxcar: 1
Electrical Dark: No-corrected
Time Normalize: (Reserved by scansci)
Dual-beam: (Reserved by scansci)
Reference Ch: (Reserved by scansci)
--- Measurement Data ---
Pixel   Wavelength   Intensity
    0        344.4       790.25
    1      344.867      789.967
    2      345.334      789.467
    3      345.801        788.2
    4      346.268      787.633
    5      346.735      788.133
    6      347.202      788.633
    7      347.669      788.467
    8      348.135      787.133
    9      348.602      785.667
   10      349.068        784.4
   11      349.535      783.233
   12      350.001        782.5
   13      350.467        783.7
   14      350.933      786.167
   15      351.399        788.3
   16      351.866      788.933
   17      352.331      788.633
   18      352.797        788.1
   19      353.263      786.667
   20      353.729        784.4
   21      354.194        782.7
   22       354.66      782.167
   23      355.126      782.833
   24      355.591        784.1
   25      356.056        785.6
   26      356.522      787.233
   27      356.987        787.5
   28      357.452      786.867
   29      357.917        785.9
   30      358.382      784.933
   31      358.847      784.467
   32      359.312        785.8
   33      359.776        788.3
   34      360.241      790.467
   35      360.706      790.533
   36       361.17      790.233
   37      361.634        790.4
   38      362.099        790.4
   39      362.563      790.167
   40      363.027      789.333
   41      363.491        788.6
   42      363.955      787.267
   43      364.419          786
   44      364.883        785.5
   45      365.347        785.9
   46      365.811        786.4
   47      366.274      786.733
   48      366.738      787.867
   49      367.201      789.767
   50      367.665      790.467
   51      368.128      789.133
   52      368.592      786.733
   53      369.055          785
   54      369.518      784.433
   55      369.981        784.1
   56      370.444      784.033
   57      370.907        784.3
   58       371.37      785.167
   59      371.832      786.067
   60      372.295      786.167
   61      372.757        785.4
   62       373.22      785.467
   63      373.682        786.1
   64      374.145        787.1
   65      374.607      786.933
   66      375.069      785.933
   67      375.531      784.833
   68      375.993      783.067
   69      376.455      781.933
   70      376.917      781.467
   71      377.379        782.6
   72      377.841        784.2
   73      378.302      784.567
   74      378.764        784.3
   75      379.225      784.067
   76      379.687      784.433
   77      380.148        785.6
   78      380.609      786.833
   79      381.071      787.467
   80      381.532      786.867
   81      381.993        785.2
   82      382.454      783.967
   83      382.915      782.267
   84      383.375      780.967
   85      383.836        780.6
   86      384.297      782.567
   87      384.757      784.933
   88      385.218      786.567
   89      385.678      787.033
   90      386.138      786.733
   91      386.599      786.433
   92      387.059          786
   93      387.519      785.667
   94      387.979        785.8
   95      388.439      786.133
   96      388.899      787.333
   97      389.358        788.5
   98      389.818        789.9
   99      390.278      790.867
  100      390.737      791.733
  101      391.197      791.933
  102      391.656        793.7
  103      392.115      795.967
  104      392.575      796.267
  105      393.034        793.8
  106      393.493      789.433
  107      393.952      787.467
  108      394.411        788.8
  109       394.87      792.267
  110      395.328      794.833
  111      395.787        794.7
  112      396.246      792.967
  113      396.704      791.167
  114      397.163      788.967
  115      397.621      787.133
  116      398.079      785.733
  117      398.537      784.767
  118      398.995      784.067
  119      399.454      783.833
  120      399.911        784.3
  121      400.369      783.867
  122      400.827      783.233
  123      401.285      783.767
  124      401.743        785.6
  125        402.2      786.767
  126      402.658        786.4
  127      403.115        785.4
  128      403.572          784
  129       404.03      782.533
  130      404.487      781.567
  131      404.944      781.733
  132      405.401      782.867
  133      405.858        783.7
  134      406.315      785.167
  135      406.771      786.233
  136      407.228        787.8
  137      407.685      788.533
  138      408.141      789.067
  139      408.598        789.5
  140      409.054      789.767
  141       409.51      788.967
  142      409.967          787
  143      410.423        784.3
  144      410.879      782.633
  145      411.335        783.1
  146      411.791      785.333
  147      412.246      788.167
  148      412.702      789.533
  149      413.158      790.467
  150      413.613      791.267
  151      414.069      791.667
  152      414.524        792.2
  153       414.98        792.2
  154      415.435        791.1
  155       415.89      788.533
  156      416.345      786.467
  157        416.8      786.933
  158      417.255      788.367
  159       417.71      789.667
  160      418.165      789.833
  161      418.619      789.267
  162      419.074      788.933
  163      419.529        788.7
  164      419.983      789.267
  165      420.437        790.2
  166      420.892      791.233
  167      421.346      791.267
  168        421.8      789.667
  169      422.254        788.6
  170      422.708      788.733
  171      423.162      788.933
  172      423.616        788.5
  173       424.07      787.667
  174      424.523      791.633
  175      424.977      798.333
  176       425.43        802.2
  177      425.884        799.3
  178      426.337        792.1
  179       426.79        787.3
  180      427.243      785.267
  181      427.697        786.5
  182       428.15      789.567
  183      428.602        792.1
  184      429.055      791.933
  185      429.508      789.333
  186      429.961      787.267
  187      430.413      785.733
  188      430.866      785.333
  189      431.318        785.1
  190      431.771      785.333
  191      432.223      785.733
  192      432.675      785.633
  193      433.127        789.1
  194      433.579        794.8
  195      434.031      798.833
  196      434.483      798.567
  197      434.935      796.233
  198      435.387      795.667
  199      435.838        795.5
  200       436.29        793.3
  201      436.741        789.3
  202      437.193      785.467
  203      437.644      784.033
  204      438.095      784.533
  205      438.546      784.767
  206      438.997      783.833
  207      439.448      783.333
  208      439.899      783.767
  209       440.35        784.8
  210      440.801      785.533
  211      441.251        784.9
  212      441.702      784.633
  213      442.152      784.167
  214      442.603      784.267
  215      443.053      784.533
  216      443.503      786.367
  217      443.954      790.833
  218      444.404      794.533
  219      444.854      795.367
  220      445.304      792.933
  221      445.753      789.333
  222      446.203        787.1
  223      446.653      786.467
  224      447.102      786.767
  225      447.552      786.233
  226      448.001      784.167
  227      448.451        783.1
  228        448.9      783.767
  229      449.349        785.7
  230      449.798        786.8
  231      450.247        786.5
  232      450.696      785.867
  233      451.145      785.067
  234      451.594        784.4
  235      452.042      783.767
  236      452.491        783.9
  237      452.939      785.067
  238      453.388        786.6
  239      453.836        787.8
  240      454.285        788.4
  241      454.733      788.167
  242      455.181      786.767
  243      455.629      785.133
  244      456.077      783.967
  245      456.525      783.633
  246      456.972      783.167
  247       457.42      783.133
  248      457.868          783
  249      458.315      782.433
  250      458.763        781.6
  251       459.21        781.4
  252      459.657      781.833
  253      460.104      781.667
  254      460.552      781.867
  255      460.999      782.633
  256      461.446      784.133
  257      461.892      785.533
  258      462.339      786.067
  259      462.786      785.333
  260      463.233      784.267
  261      463.679        783.4
  262      464.125      783.633
  263      464.572      784.367
  264      465.018        784.7
  265      465.464      784.333
  266       465.91      783.833
  267      466.356      784.533
  268      466.802      785.433
  269      467.248        785.6
  270      467.694        784.5
  271       468.14        783.4
  272      468.585      782.967
  273      469.031      782.867
  274      469.476      782.967
  275      469.922        783.2
  276      470.367        785.2
  277      470.812      788.067
  278      471.257      789.733
  279      471.702        790.3
  280      472.147        790.5
  281      472.592      790.633
  282      473.037      789.667
  283      473.482      786.867
  284      473.926      783.767
  285      474.371        782.8
  286      474.815        784.7
  287      475.259      787.333
  288      475.704        787.9
  289      476.148      787.233
  290      476.592      787.667
  291      477.036      788.433
  292       477.48        788.4
  293      477.924      786.433
  294      478.368        784.5
  295      478.811      783.633
  296      479.255      783.267
  297      479.698      783.333
  298      480.142      783.167
  299      480.585        783.6
  300      481.028        784.3
  301      481.472      785.433
  302      481.915      787.067
  303      482.358        787.5
  304      482.801      787.267
  305      483.244      787.433
  306      483.686        787.9
  307      484.129      788.033
  308      484.572      786.767
  309      485.014      784.833
  310      485.456        783.8
  311      485.899      783.433
  312      486.341      784.367
  313      486.783        786.7
  314      487.225      789.467
  315      487.667      791.467
  316      488.109      791.433
  317      488.551      789.967
  318      488.993      788.633
  319      489.434      787.433
  320      489.876      786.567
  321      490.318      786.767
  322      490.759      787.833
  323        491.2      789.733
  324      491.641      790.433
  325      492.083        789.6
  326      492.524      790.133
  327      492.965      791.867
  328      493.406        792.8
  329      493.846        791.1
  330      494.287        788.5
  331      494.728      787.467
  332      495.168      787.033
  333      495.609        786.3
  334      496.049      785.233
  335      496.489      785.067
  336       496.93          786
  337       497.37      788.833
  338       497.81      791.567
  339       498.25      792.133
  340       498.69      791.567
  341      499.129      791.667
  342      499.569        794.2
  343      500.009      795.867
  344      500.448      794.767
  345      500.888      791.967
  346      501.327      789.133
  347      501.766      787.933
  348      502.206      788.067
  349      502.645        788.8
  350      503.084      789.367
  351      503.523      789.967
  352      503.961      790.867
  353        504.4      791.233
  354      504.839        791.7
  355      505.277      792.433
  356      505.716        792.6
  357      506.154      791.167
  358      506.593      788.367
  359      507.031      787.233
  360      507.469        788.1
  361      507.907        789.1
  362      508.345      788.433
  363      508.783      785.767
  364      509.221      783.367
  365      509.659      782.267
  366      510.096      783.067
  367      510.534      784.933
  368      510.971      786.333
  369      511.409      786.733
  370      511.846      787.033
  371      512.283        788.3
  372       512.72      789.433
  373      513.157      789.533
  374      513.594      788.367
  375      514.031        787.5
  376      514.468      786.767
  377      514.905      786.267
  378      515.341      785.233
  379      515.778      784.367
  380      516.214      784.367
  381       516.65      785.433
  382      517.087          787
  383      517.523      788.067
  384      517.959      788.033
  385      518.395      786.633
  386      518.831      785.533
  387      519.267      787.567
  388      519.702      790.867
  389      520.138      791.833
  390      520.574      788.933
  391      521.009      785.467
  392      521.444      784.567
  393       521.88        785.8
  394      522.315        786.9
  395       522.75        786.4
  396      523.185      785.567
  397       523.62        786.1
  398      524.055        787.6
  399       524.49      787.567
  400      524.924      785.667
  401      525.359      783.433
  402      525.794      781.967
  403      526.228        782.2
  404      526.662        783.6
  405      527.097      784.933
  406      527.531      785.933
  407      527.965        786.5
  408      528.399      786.467
  409      528.833      785.333
  410      529.267      785.033
  411        529.7        786.9
  412      530.134      788.933
  413      530.568      789.467
  414      531.001      788.233
  415      531.434      786.667
  416      531.868      785.867
  417      532.301      786.367
  418      532.734      787.633
  419      533.167      789.167
  420        533.6      789.867
  421      534.033        789.8
  422      534.466        788.7
  423      534.898      787.667
  424      535.331      789.333
  425      535.763      791.533
  426      536.196      791.833
  427      536.628        789.1
  428       537.06        785.4
  429      537.493        783.5
  430      537.925      782.567
  431      538.357      782.367
  432      538.788      781.733
  433       539.22      781.233
  434      539.652        782.3
  435      540.084        784.8
  436      540.515        787.3
  437      540.947      787.933
  438      541.378        787.3
  439      541.809        786.5
  440       542.24        786.5
  441      542.672      786.433
  442      543.103      786.767
  443      543.533      786.667
  444      543.964      785.633
  445      544.395          785
  446      544.826          785
  447      545.256        786.1
  448      545.687      786.233
  449      546.117      784.833
  450      546.547      783.733
  451      546.978      783.433
  452      547.408      783.867
  453      547.838      784.233
  454      548.268        784.4
  455      548.698        785.2
  456      549.127        785.6
  457      549.557        785.9
  458      549.987      785.933
  459      550.416        785.8
  460      550.846      785.267
  461      551.275      785.167
  462      551.704        785.8
  463      552.133      785.767
  464      552.562        785.2
  465      552.991        784.6
  466       553.42      784.667
  467      553.849      784.033
  468      554.278      783.467
  469      554.706        783.8
  470      555.135      785.433
  471      555.563      787.367
  472      555.991        788.7
  473       556.42      788.833
  474      556.848      788.167
  475      557.276      787.567
  476      557.704      787.133
  477      558.132      786.167
  478       558.56      784.467
  479      558.987      783.567
  480      559.415        784.2
  481      559.843      785.667
  482       560.27      786.667
  483      560.697        786.6
  484      561.125        785.8
  485      561.552      784.767
  486      561.979        784.7
  487      562.406      785.033
  488      562.833      785.467
  489       563.26      786.733
  490      563.686          788
  491      564.113      789.133
  492       564.54      789.233
  493      564.966      788.367
  494      565.392        787.2
  495      565.819      785.867
  496      566.245      785.633
  497      566.671      785.867
  498      567.097      786.033
  499      567.523      786.067
  500      567.949          786
  501      568.374      785.833
  502        568.8      785.533
  503      569.226        786.4
  504      569.651      788.767
  505      570.077      791.533
  506      570.502      792.733
  507      570.927      791.333
  508      571.352      789.167
  509      571.777        787.1
  510      572.202      785.667
  511      572.627        785.4
  512      573.052      785.633
  513      573.476          786
  514      573.901      785.833
  515      574.325        786.6
  516       574.75        787.6
  517      575.174      788.233
  518      575.598        788.4
  519      576.022        788.6
  520      576.446      789.567
  521       576.87      790.467
  522      577.294        790.7
  523      577.718      789.967
  524      578.142      788.267
  525      578.565      788.167
  526      578.989      788.767
  527      579.412      789.333
  528      579.835        788.9
  529      580.259      788.367
  530      580.682        789.5
  531      581.105      790.733
  532      581.528      791.367
  533      581.951      790.533
  534      582.373      788.967
  535      582.796        788.3
  536      583.219        789.1
  537      583.641      790.667
  538      584.063        790.6
  539      584.486      788.533
  540      584.908        786.4
  541       585.33      786.033
  542      585.752        786.9
  543      586.174        788.5
  544      586.596      789.467
  545      587.018        789.4
  546      587.439      789.633
  547      587.861        789.7
  548      588.282      790.733
  549      588.704        791.1
  550      589.125      790.667
  551      589.546      789.633
  552      589.967      788.767
  553      590.388      789.767
  554      590.809      791.367
  555       591.23        793.5
  556      591.651      795.633
  557      592.071      796.467
  558      592.492        795.4
  559      592.912      793.433
  560      593.333        791.5
  561      593.753      789.367
  562      594.173      787.367
  563      594.593      786.933
  564      595.013        788.1
  565      595.433        789.8
  566      595.853        791.2
  567      596.273        791.5
  568      596.693      790.733
  569      597.112        789.7
  570      597.532      788.333
  571      597.951      786.467
  572       598.37      785.033
  573      598.789      785.033
  574      599.208      786.433
  575      599.627      787.333
  576      600.046      787.333
  577      600.465      787.333
  578      600.884      788.567
  579      601.303        790.7
  580      601.721      790.533
  581      602.139        788.4
  582      602.558      786.367
  583      602.976      786.867
  584      603.394      787.967
  585      603.812      787.833
  586       604.23      787.033
  587      604.648      788.633
  588      605.066        791.5
  589      605.484        793.7
  590      605.901        794.3
  591      606.319        794.8
